Wavelength (µm),"Reflectance, Unpol. (%)"
0.5,49.0579635
0.501,49.871376
0.502,50.7429
0.503,51.619446
0.504,52.508844
0.505,53.4009125
0.506,54.303254
0.507,55.215428
0.508,56.1087245
0.509,57.0281945
0.51,57.9218355
0.511,58.8168175
0.512,59.717736
0.513,60.589492
0.514,61.4646155
0.515,62.3115315
0.516,63.144713
0.517,63.9556705
0.518,64.7528255
0.519,65.4981105
0.52,66.2915265
0.521,67.025172
0.522,67.7400355
0.523,68.4478845
0.524,69.127224
0.525,69.7994515
0.526,70.460136
0.527,71.0603525
0.528,71.696632
0.529,72.285778
0.53,72.881348
0.531,73.445132
0.532,73.9731395
0.533,74.526194
0.534,75.032084
0.535,75.547833
0.536,76.0414225
0.537,76.52134
0.538,76.9762995
0.539,77.4308125
0.54,77.870886
0.541,78.295276
0.542,78.715703
0.543,79.0997215
0.544,79.509409
0.545,79.897316
0.546,80.250648
0.547,80.6187665
0.548,80.980824
0.549,81.340428
0.55,81.661026
0.551,81.9792525
0.552,82.30448
0.553,82.6089015
0.554,82.931389
0.555,83.214214
0.556,83.5095955
0.557,83.7837565
0.558,84.048749
0.559,84.3125795
0.56,84.573523
0.561,84.828912
0.562,85.0758415
0.563,85.313345
0.564,85.560082
0.565,85.779712
0.566,85.998356
0.567,86.2296
0.568,86.4179475
0.569,86.635127
0.57,86.8420615
0.571,87.0307
0.572,87.2445245
0.573,87.4281515
0.574,87.611001
0.575,87.795008
0.576,87.951138
0.577,88.154367
0.578,88.3236895
0.579,88.4743325
0.58,88.646383
0.581,88.8040365
0.582,88.9635085
0.583,89.1297905
0.584,89.2645035
0.585,89.4010795
0.586,89.5530155
0.587,89.6842795
0.588,89.823607
0.589,89.973143
0.59,90.092473
0.591,90.212554
0.592,90.3624165
0.593,90.4715355
0.594,90.584798
0.595,90.7153955
0.596,90.81834
0.597,90.9624125
0.598,91.063862
0.599,91.161727
0.6,91.259458
0.601,91.370002
0.602,91.468804
0.603,91.58209
0.604,91.673363
0.605,91.7656875
0.606,91.8662575
0.607,91.962493
0.608,92.0443315
0.609,92.136586
0.61,92.221103
0.611,92.3097565
0.612,92.4047875
0.613,92.4916645
0.614,92.571572
0.615,92.638336
0.616,92.721346
0.617,92.8033015
0.618,92.895242
0.619,92.965961
0.62,93.0168035
0.621,93.097667
0.622,93.174236
0.623,93.2409745
0.624,93.3318165
0.625,93.38585
0.626,93.458229
0.627,93.5070065
0.628,93.575565
0.629,93.649983
0.63,93.7152145
0.631,93.778866
0.632,93.841332
0.633,93.893086
0.634,93.965588
0.635,94.021463
0.636,94.0772875
0.637,94.1369685
0.638,94.2104325
0.639,94.2541555
0.64,94.296049
0.641,94.338128
0.642,94.4173475
0.643,94.4439175
0.644,94.5040675
0.645,94.5724125
0.646,94.6207765
0.647,94.65164
0.648,94.710839
0.649,94.7650815
0.65,94.7896155
0.651,94.834241
0.652,94.900198
0.653,94.941345
0.654,94.9811345
0.655,95.015721
0.656,95.062979
0.657,95.1181175
0.658,95.1398345
0.659,95.1919825
0.66,95.2254065
0.661,95.2712185
0.662,95.324498
0.663,95.350693
0.664,95.3717245
0.665,95.435452
0.666,95.460495
0.667,95.496617
0.668,95.5360645
0.669,95.55227
0.67,95.5887225
0.671,95.6262995
0.672,95.6477655
0.673,95.6851485
0.674,95.712485
0.675,95.761951
0.676,95.7874395
0.677,95.8040825
0.678,95.832388
0.679,95.8540865
0.68,95.872112
0.681,95.9078365
0.682,95.923944
0.683,95.957178
0.684,95.976518
0.685,96.001802
0.686,96.038399
0.687,96.050846
0.688,96.078283
0.689,96.0875685
0.69,96.0985455
0.691,96.1364515
0.692,96.1609045
0.693,96.169317
0.694,96.192911
0.695,96.2062375
0.696,96.2094535
0.697,96.242427
0.698,96.2500595
0.699,96.252248
0.7,96.288205
0.701,96.2924095
0.702,96.3204515
0.703,96.312047
0.704,96.3137745
0.705,96.354993
0.706,96.3750875
0.707,96.3575185
0.708,96.409683
0.709,96.4067985
0.71,96.397493
0.711,96.4086915
0.712,96.4353705
0.713,96.4577025
0.714,96.4730975
0.715,96.4558295
0.716,96.4883925
0.717,96.469661
0.718,96.499898
0.719,96.520541
0.72,96.5656855
0.721,96.5734295
0.722,96.5813345
0.723,96.5803565
0.724,96.5989195
0.725,96.624907
0.726,96.5762025
0.727,96.5935065
0.728,96.628279
0.729,96.630122
0.73,96.627097
0.731,96.650574
0.732,96.6854495
0.733,96.648092
0.734,96.7132735
0.735,96.688874
0.736,96.6682365
0.737,96.694992
0.738,96.6831845
0.739,96.707458
0.74,96.7233955
0.741,96.7491075
0.742,96.757068
0.743,96.76743
0.744,96.761861
0.745,96.763171
0.746,96.8366595
0.747,96.7562515
0.748,96.811022
0.749,96.8131225
0.75,96.7997895
0.751,96.830089
0.752,96.851523
0.753,96.8360425
0.754,96.8432755
0.755,96.842952
0.756,96.834998
0.757,96.880451
0.758,96.853169
0.759,96.8695375
0.76,96.8725235
0.761,96.878041
0.762,96.857698
0.763,96.8689125
0.764,96.8746575
0.765,96.894556
0.766,96.896338
0.767,96.931401
0.768,96.9211755
0.769,96.9222295
0.77,96.959592
0.771,96.955702
0.772,96.942168
0.773,96.937066
0.774,96.9565805
0.775,96.950049
0.776,96.9743785
0.777,96.9729665
0.778,96.962141
0.779,96.989886
0.78,97.006937
0.781,97.0111025
0.782,97.023167
0.783,97.0180525
0.784,97.0226375
0.785,97.052282
0.786,97.057405
0.787,97.0266125
0.788,97.0731085
0.789,97.032012
0.79,97.0751775
0.791,97.0635775
0.792,97.058269
0.793,97.0750755
0.794,97.065833
0.795,97.077735
0.796,97.0831935
0.797,97.0755445
0.798,97.0854675
0.799,97.0976735
0.8,97.098229
0.801,97.119859
0.802,97.1289075
0.803,97.1218335
0.804,97.143911
0.805,97.11719
0.806,97.162116
0.807,97.16066
0.808,97.164297
0.809,97.1537995
0.81,97.160498
0.811,97.1740915
0.812,97.1819445
0.813,97.1805345
0.814,97.163246
0.815,97.195069
0.816,97.219575
0.817,97.195603
0.818,97.19042
0.819,97.211694
0.82,97.202737
0.821,97.21283
0.822,97.219596
0.823,97.234756
0.824,97.236553
0.825,97.2416895
0.826,97.2318585
0.827,97.24635
0.828,97.224221
0.829,97.2644045
0.83,97.252576
0.831,97.2272135
0.832,97.232774
0.833,97.2535215
0.834,97.2649825
0.835,97.2686415
0.836,97.2660045
0.837,97.2957325
0.838,97.2842965
0.839,97.2687795
0.84,97.2930925
0.841,97.3108855
0.842,97.2989145
0.843,97.2982305
0.844,97.2953245
0.845,97.3121935
0.846,97.3105305
0.847,97.3114155
0.848,97.328333
0.849,97.318432
0.85,97.3361775
0.851,97.3271185
0.852,97.3239975
0.853,97.340157
0.854,97.3395705
0.855,97.346655
0.856,97.3598145
0.857,97.356394
0.858,97.364421
0.859,97.3717295
0.86,97.382447
0.861,97.3777185
0.862,97.380073
0.863,97.3715325
0.864,97.3805975
0.865,97.3913305
0.866,97.3990195
0.867,97.3951335
0.868,97.399331
0.869,97.412103
0.87,97.3947815
0.871,97.395841
0.872,97.4012355
0.873,97.394996
0.874,97.400754
0.875,97.432453
0.876,97.418368
0.877,97.4094285
0.878,97.4092445
0.879,97.4170045
0.88,97.42748
0.881,97.433569
0.882,97.431396
0.883,97.438308
0.884,97.4407855
0.885,97.4468475
0.886,97.4466385
0.887,97.448338
0.888,97.448695
0.889,97.4612415
0.89,97.460654
0.891,97.4738465
0.892,97.4756905
0.893,97.4731545
0.894,97.48009
0.895,97.480718
0.896,97.4966165
0.897,97.4957285
0.898,97.498188
0.899,97.494166
0.9,97.5052025
0.901,97.5034425
0.902,97.506856
0.903,97.5103455
0.904,97.508746
0.905,97.513394
0.906,97.517475
0.907,97.5219285
0.908,97.5281835
0.909,97.525826
0.91,97.535592
0.911,97.537022
0.912,97.5341355
0.913,97.533723
0.914,97.5533925
0.915,97.53484
0.916,97.5378325
0.917,97.538783
0.918,97.54041
0.919,97.5444565
0.92,97.5489455
0.921,97.558338
0.922,97.5575435
0.923,97.5609285
0.924,97.562683
0.925,97.5774755
0.926,97.5836725
0.927,97.582523
0.928,97.58231
0.929,97.5927775
0.93,97.6007105
0.931,97.5987665
0.932,97.5972635
0.933,97.600131
0.934,97.603469
0.935,97.609838
0.936,97.6093195
0.937,97.6134265
0.938,97.618539
0.939,97.616393
0.94,97.644939
0.941,97.619485
0.942,97.624988
0.943,97.6275415
0.944,97.613644
0.945,97.6466195
0.946,97.652352
0.947,97.651045
0.948,97.651079
0.949,97.656672
0.95,97.66616
0.951,97.6615275
0.952,97.6577545
0.953,97.662696
0.954,97.669421
0.955,97.665335
0.956,97.6681625
0.957,97.6733685
0.958,97.67582
0.959,97.6777465
0.96,97.675377
0.961,97.676122
0.962,97.6840155
0.963,97.6785285
0.964,97.690717
0.965,97.690173
0.966,97.692885
0.967,97.7001115
0.968,97.7081055
0.969,97.713732
0.97,97.7142285
0.971,97.7132755
0.972,97.7137305
0.973,97.7115635
0.974,97.7112265
0.975,97.7103585
0.976,97.717657
0.977,97.719839
0.978,97.722153
0.979,97.71982
0.98,97.724028
0.981,97.7235435
0.982,97.7308865
0.983,97.7298135
0.984,97.725916
0.985,97.732343
0.986,97.7382605
0.987,97.7408925
0.988,97.7411195
0.989,97.7461985
0.99,97.749574
0.991,97.7530635
0.992,97.7585615
0.993,97.757359
0.994,97.762278
0.995,97.7632415
0.996,97.7693195
0.997,97.767678
0.998,97.7687195
0.999,97.773081
1,97.773315
1.001,97.79458
1.002,97.80454
1.003,97.8062395
1.004,97.7819905
1.005,97.7727875
1.006,97.771295
1.007,97.771764
1.008,97.773887
1.009,97.7753935
1.01,97.770591
1.011,97.779458
1.012,97.776
1.013,97.7797025
1.014,97.7807105
1.015,97.7773355
1.016,97.7797025
1.017,97.782444
1.018,97.780855
1.019,97.7756755
1.02,97.7787405
1.021,97.7890315
1.022,97.784961
1.023,97.784405
1.024,97.7873645
1.025,97.785907
1.026,97.786031
1.027,97.790693
1.028,97.7847745
1.029,97.784083
1.03,97.7962105
1.031,97.7961785
1.032,97.838565
1.033,97.845574
1.034,97.841072
1.035,97.826869
1.036,97.8249075
1.037,97.8232315
1.038,97.823811
1.039,97.8135845
1.04,97.812684
1.041,97.811326
1.042,97.8138835
1.043,97.8125485
1.044,97.8142595
1.045,97.817609
1.046,97.820843
1.047,97.8241045
1.048,97.824904
1.049,97.8260055
1.05,97.774334
1.051,97.8081745
1.052,97.811554
1.053,97.836571
1.054,97.802189
1.055,97.8040165
1.056,97.848633
1.057,97.863388
1.058,97.857994
1.059,97.8368035
1.06,97.80653
1.061,97.8630865
1.062,97.8243295
1.063,97.851608
1.064,97.8768995
1.065,97.8566285
1.066,97.880943
1.067,97.84375
1.068,97.8213345
1.069,97.8249055
1.07,97.821861
1.071,97.8535995
1.072,97.8743515
1.073,97.8599245
1.074,97.885529
1.075,97.8483775
1.076,97.8717
1.077,97.8534165
1.078,97.9114155
1.079,97.9163325
1.08,97.8995745
1.081,97.8844985
1.082,97.8646965
1.083,97.879665
1.084,97.8898315
1.085,97.8799285
1.086,97.868195
1.087,97.9125405
1.088,97.8867185
1.089,97.8826485
1.09,97.857193
1.091,97.9006085
1.092,97.8978005
1.093,97.900219
1.094,97.912052
1.095,97.9231605
1.096,97.9136235
1.097,97.9059065
1.098,97.891655
1.099,97.914989
1.1,97.9008405
1.101,97.91996
1.102,97.902573
1.103,97.9536135
1.104,97.9247475
1.105,97.954983
1.106,97.9647295
1.107,97.9254535
1.108,97.9730225
1.109,97.9494475
1.11,97.966305
1.111,97.9519155
1.112,97.9432145
1.113,97.9447935
1.114,97.9505615
1.115,97.948334
1.116,97.927086
1.117,97.9502525
1.118,97.95055
1.119,97.915905
1.12,97.948925
1.121,97.9126665
1.122,97.948948
1.123,97.952904
1.124,97.9660335
1.125,97.98452
1.126,97.948738
1.127,97.954067
1.128,97.9816935
1.129,97.9652215
1.13,97.96537
1.131,97.97369
1.132,97.9799575
1.133,98.004074
1.134,97.9932215
1.135,97.966957
1.136,97.9717715
1.137,97.9556735
1.138,97.9811555
1.139,97.981522
1.14,97.962845
1.141,98.0047915
1.142,97.96373
1.143,97.987583
1.144,97.9673995
1.145,97.9982035
1.146,97.997494
1.147,98.001213
1.148,97.992798
1.149,97.982971
1.15,97.969799
1.151,98.0265505
1.152,98.0001905
1.153,98.0295945
1.154,98.000557
1.155,98.023487
1.156,97.985855
1.157,98.005657
1.158,97.962597
1.159,98.0062595
1.16,98.01429
1.161,97.9735145
1.162,98.0188065
1.163,98.0201185
1.164,98.036755
1.165,98.008442
1.166,98.0174295
1.167,97.993061
1.168,98.0179785
1.169,98.0346835
1.17,98.008232
1.171,98.0121385
1.172,98.0125465
1.173,98.017208
1.174,98.0286715
1.175,98.0438495
1.176,98.0335235
1.177,98.008907
1.178,98.0368615
1.179,98.004753
1.18,98.036034
1.181,98.0364875
1.182,98.03051
1.183,98.006935
1.184,98.028988
1.185,98.0432245
1.186,98.03804
1.187,98.020218
1.188,98.0457915
1.189,98.0586855
1.19,98.0494115
1.191,98.0515285
1.192,98.05328
1.193,98.053379
1.194,98.0561445
1.195,98.048969
1.196,98.0633085
1.197,98.055115
1.198,98.0505905
1.199,98.0686
1.2,98.081722
1.201,98.058159
1.202,98.0914
1.203,98.0719715
1.204,98.083973
1.205,98.060162
1.206,98.110916
1.207,98.1126175
1.208,98.0733795
1.209,98.073017
1.21,98.061947
1.211,98.124546
1.212,98.0900115
1.213,98.1169775
1.214,98.0861395
1.215,98.101608
1.216,98.1320915
1.217,98.098148
1.218,98.1029205
1.219,98.1138265
1.22,98.0923615
1.221,98.093456
1.222,98.114021
1.223,98.093426
1.224,98.104866
1.225,98.1231725
1.226,98.117706
1.227,98.1764715
1.228,98.1310425
1.229,98.161522
1.23,98.132866
1.231,98.180912
1.232,98.1318475
1.233,98.131077
1.234,98.1196325
1.235,98.109619
1.236,98.113922
1.237,98.125942
1.238,98.1249655
1.239,98.1234705
1.24,98.118763
1.241,98.128151
1.242,98.116211
1.243,98.128548
1.244,98.131096
1.245,98.134888
1.246,98.1362875
1.247,98.1361655
1.248,98.155159
1.249,98.1243365
1.25,98.1203
1.251,98.1304665
1.252,98.1282805
1.253,98.1536295
1.254,98.1444705
1.255,98.1282005
1.256,98.141403
1.257,98.117348
1.258,98.1323965
1.259,98.13327
1.26,98.1312485
1.261,98.139252
1.262,98.1495365
1.263,98.1586225
1.264,98.147892
1.265,98.132679
1.266,98.1347235
1.267,98.1370585
1.268,98.143429
1.269,98.163662
1.27,98.1603775
1.271,98.1431655
1.272,98.149456
1.273,98.122383
1.274,98.166416
1.275,98.1641465
1.276,98.150402
1.277,98.1465
1.278,98.1532555
1.279,98.157841
1.28,98.1620065
1.281,98.160587
1.282,98.153496
1.283,98.1736185
1.284,98.14999
1.285,98.1636735
1.286,98.177685
1.287,98.1911885
1.288,98.164482
1.289,98.1845665
1.29,98.195282
1.291,98.160187
1.292,98.1649285
1.293,98.171997
1.294,98.1729735
1.295,98.152832
1.296,98.1741675
1.297,98.180328
1.298,98.1798515
1.299,98.1567725
1.3,98.178013
1.301,98.188381
1.302,98.183422
1.303,98.1666525
1.304,98.1784855
1.305,98.1912805
1.306,98.1833345
1.307,98.1953165
1.308,98.1790125
1.309,98.161434
1.31,98.18758
1.311,98.1827505
1.312,98.167866
1.313,98.163021
1.314,98.1721725
1.315,98.177952
1.316,98.1841775
1.317,98.1904485
1.318,98.220108
1.319,98.1769215
1.32,98.182907
1.321,98.196552
1.322,98.200974
1.323,98.1768875
1.324,98.1853675
1.325,98.20224
1.326,98.194897
1.327,98.1932105
1.328,98.183178
1.329,98.2084545
1.33,98.206272
1.331,98.186287
1.332,98.1906055
1.333,98.191368
1.334,98.190716
1.335,98.1970825
1.336,98.1929205
1.337,98.194153
1.338,98.19315
1.339,98.1935005
1.34,98.1854405
1.341,98.2256735
1.342,98.2200165
1.343,98.182869
1.344,98.2030755
1.345,98.1798365
1.346,98.2204935
1.347,98.189304
1.348,98.1725735
1.349,98.204182
1.35,98.1992875
1.351,98.199955
1.352,98.2071075
1.353,98.2028385
1.354,98.1991845
1.355,98.2159425
1.356,98.1994895
1.357,98.20496
1.358,98.187191
1.359,98.1895145
1.36,98.1932675
1.361,98.2195015
1.362,98.220116
1.363,98.2441065
1.364,98.2346
1.365,98.228077
1.366,98.2104875
1.367,98.216759
1.368,98.1945725
1.369,98.2231065
1.37,98.1913335
1.371,98.2183685
1.372,98.2183035
1.373,98.209343
1.374,98.2064325
1.375,98.174671
1.376,98.2307895
1.377,98.2238275
1.378,98.222534
1.379,98.222122
1.38,98.240242
1.381,98.2279205
1.382,98.2346955
1.383,98.2159655
1.384,98.233379
1.385,98.224102
1.386,98.22422
1.387,98.23542
1.388,98.239826
1.389,98.219574
1.39,98.231411
1.391,98.2112695
1.392,98.2256965
1.393,98.2511405
1.394,98.226513
1.395,98.2516975
1.396,98.2366945
1.397,98.2477605
1.398,98.2366335
1.399,98.238159
1.4,98.2340545
1.401,98.226036
1.402,98.2166025
1.403,98.2255095
1.404,98.245552
1.405,98.2230875
1.406,98.243683
1.407,98.2414625
1.408,98.2285655
1.409,98.238636
1.41,98.228081
1.411,98.240898
1.412,98.2078935
1.413,98.231697
1.414,98.2455825
1.415,98.230526
1.416,98.242439
1.417,98.251732
1.418,98.245499
1.419,98.248924
1.42,98.2475815
1.421,98.2462465
1.422,98.2377775
1.423,98.260357
1.424,98.2456935
1.425,98.226433
1.426,98.234104
1.427,98.2429655
1.428,98.2588465
1.429,98.251579
1.43,98.2646445
1.431,98.2460555
1.432,98.2635075
1.433,98.2703325
1.434,98.2401165
1.435,98.2730565
1.436,98.2640305
1.437,98.2442245
1.438,98.2569315
1.439,98.251705
1.44,98.269287
1.441,98.2252045
1.442,98.240448
1.443,98.2528955
1.444,98.2473755
1.445,98.2373925
1.446,98.261322
1.447,98.271946
1.448,98.2467765
1.449,98.2465595
1.45,98.264702
1.451,98.2791325
1.452,98.243954
1.453,98.241268
1.454,98.227676
1.455,98.242298
1.456,98.269333
1.457,98.2828485
1.458,98.2658575
1.459,98.2374455
1.46,98.2413175
1.461,98.2409515
1.462,98.2560425
1.463,98.2478675
1.464,98.245575
1.465,98.232643
1.466,98.260933
1.467,98.254093
1.468,98.268669
1.469,98.2717515
1.47,98.266731
1.471,98.234238
1.472,98.2691915
1.473,98.267143
1.474,98.2677685
1.475,98.2452735
1.476,98.28154
1.477,98.2808265
1.478,98.243183
1.479,98.263733
1.48,98.229641
1.481,98.269802
1.482,98.2751005
1.483,98.280697
1.484,98.269417
1.485,98.2749825
1.486,98.2839395
1.487,98.267807
1.488,98.286015
1.489,98.303562
1.49,98.292992
1.491,98.278931
1.492,98.2687
1.493,98.2817035
1.494,98.303726
1.495,98.2985875
1.496,98.270855
1.497,98.266861
1.498,98.2830925
1.499,98.2719765
1.5,98.2854535
1.501,98.2738115
1.502,98.255428
1.503,98.281017
1.504,98.261799
1.505,98.287102
1.506,98.298054
1.507,98.2564395
1.508,98.2945675
1.509,98.2896385
1.51,98.2818645
1.511,98.286606
1.512,98.2902985
1.513,98.2752
1.514,98.278389
1.515,98.2944715
1.516,98.2974395
1.517,98.2846605
1.518,98.2601625
1.519,98.2726325
1.52,98.2869075
1.521,98.2961425
1.522,98.26136
1.523,98.265896
1.524,98.262066
1.525,98.300499
1.526,98.2666935
1.527,98.2815855
1.528,98.291283
1.529,98.293644
1.53,98.2660865
1.531,98.254162
1.532,98.2912945
1.533,98.2777825
1.534,98.2814445
1.535,98.303219
1.536,98.2697065
1.537,98.2878685
1.538,98.2760545
1.539,98.2963105
1.54,98.272949
1.541,98.2814405
1.542,98.3160935
1.543,98.3048595
1.544,98.311611
1.545,98.2756385
1.546,98.29723
1.547,98.293339
1.548,98.3156245
1.549,98.2831615
1.55,98.278179
1.551,98.2823335
1.552,98.2942965
1.553,98.2893675
1.554,98.2666015
1.555,98.296677
1.556,98.2976875
1.557,98.297352
1.558,98.299427
1.559,98.27306
1.56,98.293129
1.561,98.260948
1.562,98.29744
1.563,98.282532
1.564,98.2847635
1.565,98.316673
1.566,98.311882
1.567,98.2786825
1.568,98.2725945
1.569,98.295803
1.57,98.291359
1.571,98.280979
1.572,98.293579
1.573,98.287239
1.574,98.2893715
1.575,98.284218
1.576,98.2853735
1.577,98.2952005
1.578,98.2982675
1.579,98.269806
1.58,98.3428
1.581,98.300728
1.582,98.31604
1.583,98.274044
1.584,98.3283765
1.585,98.3239595
1.586,98.3017045
1.587,98.3178135
1.588,98.3106385
1.589,98.315102
1.59,98.3127445
1.591,98.293018
1.592,98.3004685
1.593,98.3149375
1.594,98.3353235
1.595,98.302521
1.596,98.2944145
1.597,98.300564
1.598,98.305763
1.599,98.2956465
1.6,98.2946355
1.601,98.3118515
1.602,98.3241845
1.603,98.289661
1.604,98.296158
1.605,98.306934
1.606,98.288967
1.607,98.319683
1.608,98.309368
1.609,98.3246995
1.61,98.314499
1.611,98.290493
1.612,98.3144455
1.613,98.2956315
1.614,98.310463
1.615,98.295925
1.616,98.2822305
1.617,98.295544
1.618,98.301346
1.619,98.291813
1.62,98.3042065
1.621,98.321743
1.622,98.3140185
1.623,98.3189735
1.624,98.3113975
1.625,98.294495
1.626,98.327026
1.627,98.3120345
1.628,98.2983205
1.629,98.298088
1.63,98.306549
1.631,98.3170625
1.632,98.3197825
1.633,98.302223
1.634,98.342663
1.635,98.288311
1.636,98.3342325
1.637,98.322891
1.638,98.288601
1.639,98.323364
1.64,98.3250465
1.641,98.3357965
1.642,98.2952615
1.643,98.3082045
1.644,98.329285
1.645,98.3344765
1.646,98.303814
1.647,98.308746
1.648,98.319275
1.649,98.332409
1.65,98.28603
1.651,98.3422015
1.652,98.316738
1.653,98.3157535
1.654,98.3275415
1.655,98.3392905
1.656,98.3226125
1.657,98.3160515
1.658,98.3278045
1.659,98.311798
1.66,98.307003
1.661,98.330135
1.662,98.3552055
1.663,98.3048515
1.664,98.3276975
1.665,98.3163685
1.666,98.3385125
1.667,98.323822
1.668,98.3236085
1.669,98.3446045
1.67,98.3278695
1.671,98.32872
1.672,98.3286095
1.673,98.33638
1.674,98.309006
1.675,98.339668
1.676,98.3382875
1.677,98.3468665
1.678,98.3311845
1.679,98.33057
1.68,98.277565
1.681,98.342815
1.682,98.3139495
1.683,98.3363225
1.684,98.3467365
1.685,98.309029
1.686,98.3361895
1.687,98.3249475
1.688,98.34642
1.689,98.3187675
1.69,98.3483125
1.691,98.3133165
1.692,98.359375
1.693,98.353981
1.694,98.356796
1.695,98.3172605
1.696,98.3255005
1.697,98.3378755
1.698,98.336136
1.699,98.3153345
1.7,98.310379
1.701,98.361908
1.702,98.3272895
1.703,98.3670235
1.704,98.357693
1.705,98.3326535
1.706,98.3356055
1.707,98.3412895
1.708,98.357212
1.709,98.3030775
1.71,98.3314705
1.711,98.32346
1.712,98.2868465
1.713,98.3294335
1.714,98.3413965
1.715,98.348843
1.716,98.3474885
1.717,98.3316305
1.718,98.332531
1.719,98.3196985
1.72,98.3650475
1.721,98.3395655
1.722,98.3627775
1.723,98.3393705
1.724,98.3678135
1.725,98.390625
1.726,98.38776
1.727,98.400612
1.728,98.360203
1.729,98.361073
1.73,98.3929135
1.731,98.38163
1.732,98.3385925
1.733,98.3100395
1.734,98.323326
1.735,98.3959085
1.736,98.3285065
1.737,98.3769
1.738,98.3773765
1.739,98.3697815
1.74,98.3865395
1.741,98.4040185
1.742,98.3597605
1.743,98.4412575
1.744,98.3611605
1.745,98.3736035
1.746,98.33477
1.747,98.3492545
1.748,98.3032535
1.749,98.3637505
1.75,98.3280715
1.751,98.3268965
1.752,98.3479765
1.753,98.352314
1.754,98.3310815
1.755,98.369396
1.756,98.3811985
1.757,98.3833505
1.758,98.382946
1.759,98.3651655
1.76,98.3189205
1.761,98.35569
1.762,98.3205145
1.763,98.31015
1.764,98.330368
1.765,98.39003
1.766,98.3530235
1.767,98.3195035
1.768,98.3454665
1.769,98.332142
1.77,98.3351095
1.771,98.350746
1.772,98.3169975
1.773,98.339504
1.774,98.4376525
1.775,98.3489115
1.776,98.323444
1.777,98.411034
1.778,98.2981875
1.779,98.39822
1.78,98.381668
1.781,98.3694575
1.782,98.3300245
1.783,98.4103665
1.784,98.3627355
1.785,98.3858605
1.786,98.3638725
1.787,98.3773685
1.788,98.3817135
1.789,98.361645
1.79,98.3163415
1.791,98.3210145
1.792,98.345642
1.793,98.3695755
1.794,98.396374
1.795,98.315037
1.796,98.353844
1.797,98.3826945
1.798,98.3961375
1.799,98.3997305
1.8,98.4012105
1.801,98.3691175
1.802,98.3613965
1.803,98.3807105
1.804,98.362629
1.805,98.3554915
1.806,98.3597755
1.807,98.3781855
1.808,98.3746835
1.809,98.3609885
1.81,98.362236
1.811,98.335175
1.812,98.4186135
1.813,98.386909
1.814,98.404396
1.815,98.435196
1.816,98.403954
1.817,98.348026
1.818,98.3326225
1.819,98.3464965
1.82,98.3506085
1.821,98.3919525
1.822,98.3771055
1.823,98.3666385
1.824,98.3607065
1.825,98.347431
1.826,98.459797
1.827,98.3685685
1.828,98.399685
1.829,98.3912965
1.83,98.3646585
1.831,98.426834
1.832,98.392666
1.833,98.340248
1.834,98.39497
1.835,98.376503
1.836,98.352379
1.837,98.4758685
1.838,98.327534
1.839,98.4158405
1.84,98.3803675
1.841,98.4326855
1.842,98.44651
1.843,98.4321745
1.844,98.357891
1.845,98.298557
1.846,98.368416
1.847,98.336361
1.848,98.244957
1.849,98.3406525
1.85,98.343075
1.851,98.3923915
1.852,98.348545
1.853,98.349907
1.854,98.3774875
1.855,98.462208
1.856,98.40213
1.857,98.412159
1.858,98.361355
1.859,98.468243
1.86,98.3621595
1.861,98.4000815
1.862,98.3909835
1.863,98.3977965
1.864,98.379921
1.865,98.4256055
1.866,98.4257315
1.867,98.464142
1.868,98.4135015
1.869,98.4335135
1.87,98.3794935
1.871,98.4046215
1.872,98.3783605
1.873,98.409847
1.874,98.4312365
1.875,98.4234355
1.876,98.400711
1.877,98.3773535
1.878,98.426922
1.879,98.434193
1.88,98.397476
1.881,98.296917
1.882,98.372547
1.883,98.4256595
1.884,98.409653
1.885,98.4140245
1.886,98.46365
1.887,98.3897895
1.888,98.425449
1.889,98.411167
1.89,98.376686
1.891,98.381279
1.892,98.4428865
1.893,98.3639185
1.894,98.437626
1.895,98.332321
1.896,98.357086
1.897,98.375019
1.898,98.373623
1.899,98.4327585
1.9,98.3820955
1.901,98.405487
1.902,98.46291
1.903,98.4093285
1.904,98.406422
1.905,98.4138985
1.906,98.494366
1.907,98.38142
1.908,98.385548
1.909,98.4519425
1.91,98.409092
1.911,98.375599
1.912,98.422924
1.913,98.4482575
1.914,98.396786
1.915,98.4511145
1.916,98.3936385
1.917,98.511864
1.918,98.3788185
1.919,98.44532
1.92,98.4183005
1.921,98.439659
1.922,98.419571
1.923,98.3392255
1.924,98.378315
1.925,98.3858985
1.926,98.3165665
1.927,98.379055
1.928,98.322094
1.929,98.3855595
1.93,98.4116365
1.931,98.469719
1.932,98.420479
1.933,98.381996
1.934,98.3931885
1.935,98.4293405
1.936,98.4585305
1.937,98.3590505
1.938,98.443668
1.939,98.4053765
1.94,98.364807
1.941,98.391373
1.942,98.3043175
1.943,98.413479
1.944,98.333683
1.945,98.3669435
1.946,98.318504
1.947,98.5102885
1.948,98.4435195
1.949,98.50457
1.95,98.4750785
1.951,98.5177995
1.952,98.364746
1.953,98.4754485
1.954,98.457123
1.955,98.3054545
1.956,98.4223675
1.957,98.334797
1.958,98.4126055
1.959,98.3125035
1.96,98.452507
1.961,98.414906
1.962,98.4758495
1.963,98.4193875
1.964,98.4463535
1.965,98.4501955
1.966,98.408268
1.967,98.5267335
1.968,98.441063
1.969,98.373085
1.97,98.426636
1.971,98.4434545
1.972,98.4458315
1.973,98.469322
1.974,98.3722645
1.975,98.3009185
1.976,98.4340055
1.977,98.4783365
1.978,98.379841
1.979,98.420147
1.98,98.36343
1.981,98.4834175
1.982,98.3991585
1.983,98.3818895
1.984,98.4629975
1.985,98.517895
1.986,98.41637
1.987,98.40966
1.988,98.433861
1.989,98.396011
1.99,98.3504985
1.991,98.407875
1.992,98.444141
1.993,98.3455505
1.994,98.4448585
1.995,98.4617005
1.996,98.408382
1.997,98.5489885
1.998,98.429428
1.999,98.426426
2,98.421322
2.00365,98.420811
2.00751,98.406739
2.01138,98.386803
2.01524,98.4038315
2.0191,98.392518
2.02296,98.3861725
2.02682,98.4157375
2.03068,98.404332
2.03454,98.4015265
2.0384,98.4258695
2.04226,98.4076
2.04612,98.429726
2.04998,98.443149
2.05384,98.4373075
2.0577,98.435503
2.06156,98.4312795
2.06542,98.4299075
2.06928,98.427588
2.07315,98.446675
2.07701,98.449341
2.08087,98.437424
2.08473,98.440463
2.08859,98.4323755
2.09245,98.4581475
2.09631,98.4870625
2.10017,98.4646125
2.10403,98.4369495
2.10789,98.446256
2.11175,98.4744805
2.11561,98.4614695
2.11947,98.462834
2.12333,98.4716345
2.12719,98.4759935
2.13105,98.447513
2.13491,98.4752465
2.13878,98.470379
2.14264,98.4800635
2.1465,98.4825155
2.15036,98.4694595
2.15422,98.484754
2.15808,98.477851
2.16194,98.4923965
2.1658,98.49184
2.16966,98.4991375
2.17352,98.493803
2.17738,98.495231
2.18124,98.4795025
2.1851,98.4785945
2.18896,98.5099595
2.19282,98.498626
2.19668,98.5075265
2.20055,98.495674
2.20441,98.5082
2.20827,98.491994
2.21213,98.5227985
2.21599,98.514443
2.21985,98.5003655
2.22371,98.5251665
2.22757,98.518527
2.23143,98.535813
2.23529,98.5097925
2.23915,98.499541
2.24301,98.5423815
2.24687,98.526817
2.25073,98.528023
2.25459,98.560173
2.25845,98.534621
2.26231,98.547436
2.26618,98.540529
2.27004,98.535321
2.2739,98.5332215
2.27776,98.551364
2.28162,98.534733
2.28548,98.546166
2.28934,98.538912
2.2932,98.5533405
2.29706,98.553767
2.30092,98.5543515
2.30478,98.5551665
2.30864,98.5598975
2.3125,98.5564
2.31636,98.551576
2.32022,98.559252
2.32408,98.5395635
2.32795,98.5438455
2.33181,98.536764
2.33567,98.543547
2.33953,98.5530915
2.34339,98.551669
2.34725,98.55499
2.35111,98.5771065
2.35497,98.571689
2.35883,98.56429
2.36269,98.5670605
2.36655,98.570063
2.37041,98.5713345
2.37427,98.572837
2.37813,98.5602475
2.38199,98.585273
2.38585,98.585634
2.38971,98.5781965
2.39358,98.5941
2.39744,98.5873645
2.4013,98.572961
2.40516,98.5813605
2.40902,98.5698965
2.41288,98.577727
2.41674,98.579089
2.4206,98.5814525
2.42446,98.5779255
2.42832,98.599255
2.43218,98.610759
2.43604,98.5849365
2.4399,98.605878
2.44376,98.601522
2.44762,98.5837655
2.45148,98.6001815
2.45535,98.5959335
2.45921,98.5923465
2.46307,98.6000635
2.46693,98.610442
2.47079,98.6061585
2.47465,98.6042735
2.47851,98.610734
2.48237,98.6052525
2.48623,98.6155065
2.49009,98.611903
2.49395,98.6125335
2.49781,98.611159
2.50167,98.6131245
2.50553,98.6043205
2.50939,98.616749
2.51325,98.6069585
2.51711,98.6272685
2.52098,98.613329
2.52484,98.6067815
2.5287,98.617243
2.53256,98.642016
2.53642,98.6335745
2.54028,98.6237215
2.54414,98.6379445
2.548,98.6642735
2.55186,98.647926
2.55572,98.6157965
2.55958,98.687819
2.56344,98.6922055
2.5673,98.6372905
2.57116,98.6001305
2.57502,98.651902
2.57888,98.6156235
2.58275,98.7185325
2.58661,98.749759
2.59047,98.624954
2.59433,98.9510855
2.59819,98.630785
2.60205,98.7219085
2.60591,98.7514935
2.60977,98.7154865
2.61363,98.7122955
2.61749,98.7843405
2.62135,98.643643
2.62521,98.710254
2.62907,98.756278
2.63293,98.7046555
2.63679,98.65526
2.64065,98.663725
2.64451,98.6779665
2.64838,98.6387095
2.65224,98.759973
2.6561,98.6774385
2.65996,98.7647855
2.66382,98.779511
2.66768,98.736907
2.67154,98.5582485
2.6754,98.717756
2.67926,98.5971575
2.68312,98.527366
2.68698,98.541582
2.69084,98.603514
2.6947,98.6811465
2.69856,98.5263375
2.70242,98.53888
2.70628,98.55886
2.71015,98.749511
2.71401,98.6213735
2.71787,98.7297195
2.72173,98.6787365
2.72559,98.708897
2.72945,98.6629485
2.73331,98.696813
2.73717,98.692499
2.74103,98.7867565
2.74489,98.658051
2.74875,98.6285515
2.75261,98.611141
2.75647,98.6187835
2.76033,98.6070235
2.76419,98.6655345
2.76805,98.73605
2.77191,98.6530305
2.77578,98.6314055
2.77964,98.6345165
2.7835,98.6056745
2.78736,98.711447
2.79122,98.646669
2.79508,98.6599225
2.79894,98.666305
2.8028,98.785534
2.80666,98.6839455
2.81052,98.6705095
2.81438,98.72119
2.81824,98.7212035
2.8221,98.680923
2.82596,98.709161
2.82982,98.669239
2.83368,98.7312365
2.83755,98.701666
2.84141,98.693233
2.84527,98.6819585
2.84913,98.6983065
2.85299,98.717607
2.85685,98.6768215
2.86071,98.684776
2.86457,98.6890915
2.86843,98.68783
2.87229,98.6962985
2.87615,98.683909
2.88001,98.7011565
2.88387,98.7017765
2.88773,98.710501
2.89159,98.6818995
2.89545,98.6921145
2.89931,98.7038905
2.90318,98.6886455
2.90704,98.6862485
2.9109,98.6797605
2.91476,98.695239
2.91862,98.682469
2.92248,98.6982535
2.92634,98.677735
2.9302,98.68708
2.93406,98.692515
2.93792,98.70376
2.94178,98.7009795
2.94564,98.702112
2.9495,98.690136
2.95336,98.7179175
2.95722,98.6909295
2.96108,98.7048915
2.96495,98.6997955
2.96881,98.693101
2.97267,98.698238
2.97653,98.6884725
2.98039,98.6894615
2.98425,98.6932255
2.98811,98.689613
2.99197,98.700054
2.99583,98.700164
2.99969,98.709515
3.00355,98.697433
3.00741,98.707406
3.01127,98.720249
3.01513,98.7211435
3.01899,98.717526
3.02285,98.706542
3.02671,98.6985275
3.03058,98.722288
3.03444,98.703735
3.0383,98.708488
3.04216,98.70907
3.04602,98.7014135
3.04988,98.706907
3.05374,98.7108515
3.0576,98.7052385
3.06146,98.7094615
3.06532,98.7043735
3.06918,98.713503
3.07304,98.725851
3.0769,98.7190835
3.08076,98.7249555
3.08462,98.712604
3.08848,98.7111655
3.09235,98.7126135
3.09621,98.7180355
3.10007,98.7003575
3.10393,98.7030045
3.10779,98.712323
3.11165,98.7121355
3.11551,98.7162855
3.11937,98.701484
3.12323,98.7099835
3.12709,98.715635
3.13095,98.7145365
3.13481,98.7237915
3.13867,98.711273
3.14253,98.72617
3.14639,98.721851
3.15025,98.7140505
3.15411,98.7122125
3.15798,98.719301
3.16184,98.7126725
3.1657,98.7205185
3.16956,98.7148775
3.17342,98.709259
3.17728,98.7286785
3.18114,98.7148515
3.185,98.718809
3.18886,98.725879
3.19272,98.7318125
3.19658,98.7266155
3.20044,98.7317895
3.2043,98.735574
3.20816,98.732859
3.21202,98.7333605
3.21588,98.7301725
3.21975,98.7333535
3.22361,98.747815
3.22747,98.7304935
3.23133,98.737943
3.23519,98.726871
3.23905,98.7205585
3.24291,98.7278705
3.24677,98.7407935
3.25063,98.7369935
3.25449,98.7416705
3.25835,98.7345905
3.26221,98.739349
3.26607,98.737475
3.26993,98.742167
3.27379,98.74672
3.27765,98.732222
3.28151,98.73489
3.28538,98.7413835
3.28924,98.7427605
3.2931,98.7497895
3.29696,98.7462055
3.30082,98.7390525
3.30468,98.7418575
3.30854,98.742325
3.3124,98.7471115
3.31626,98.7430125
3.32012,98.74212
3.32398,98.7348525
3.32784,98.731097
3.3317,98.726954
3.33556,98.722384
3.33942,98.7262615
3.34328,98.727415
3.34715,98.7233145
3.35101,98.718182
3.35487,98.720596
3.35873,98.7238625
3.36259,98.7327215
3.36645,98.730077
3.37031,98.726458
3.37417,98.7390325
3.37803,98.7457275
3.38189,98.738972
3.38575,98.7422505
3.38961,98.752481
3.39347,98.755853
3.39733,98.7599655
3.40119,98.7489445
3.40505,98.748575
3.40891,98.751528
3.41278,98.733798
3.41664,98.7428135
3.4205,98.7382455
3.42436,98.740873
3.42822,98.7307245
3.43208,98.7388025
3.43594,98.7524145
3.4398,98.7455685
3.44366,98.753965
3.44752,98.742841
3.45138,98.7535955
3.45524,98.7569915
3.4591,98.762338
3.46296,98.7683785
3.46682,98.766316
3.47068,98.7629385
3.47455,98.76857
3.47841,98.7641235
3.48227,98.7654225
3.48613,98.7611885
3.48999,98.7552075
3.49385,98.7598795
3.49771,98.7488125
3.50157,98.7558795
3.50543,98.759879
3.50929,98.77002
3.51315,98.7687275
3.51701,98.7647625
3.52087,98.7673475
3.52473,98.7748855
3.52859,98.776866
3.53245,98.7725935
3.53631,98.771501
3.54018,98.7828695
3.54404,98.7821255
3.5479,98.776489
3.55176,98.7835105
3.55562,98.7976705
3.55948,98.784135
3.56334,98.7849105
3.5672,98.788084
3.57106,98.790015
3.57492,98.7844125
3.57878,98.771899
3.58264,98.769877
3.5865,98.772247
3.59036,98.7751205
3.59422,98.7816625
3.59808,98.7778955
3.60195,98.7800765
3.60581,98.7850695
3.60967,98.781062
3.61353,98.7856945
3.61739,98.7951155
3.62125,98.7921885
3.62511,98.788534
3.62897,98.790751
3.63283,98.7906005
3.63669,98.795499
3.64055,98.796204
3.64441,98.796842
3.64827,98.807588
3.65213,98.806104
3.65599,98.8055525
3.65985,98.790561
3.66371,98.794522
3.66758,98.798136
3.67144,98.7938295
3.6753,98.795634
3.67916,98.799035
3.68302,98.794867
3.68688,98.7955625
3.69074,98.798935
3.6946,98.8020945
3.69846,98.794878
3.70232,98.7897765
3.70618,98.793036
3.71004,98.7954265
3.7139,98.7974985
3.71776,98.8078
3.72162,98.8034385
3.72548,98.804629
3.72935,98.801809
3.73321,98.808588
3.73707,98.8066225
3.74093,98.8067175
3.74479,98.805461
3.74865,98.805903
3.75251,98.804633
3.75637,98.808291
3.76023,98.8090465
3.76409,98.8083485
3.76795,98.8016695
3.77181,98.7998855
3.77567,98.7967285
3.77953,98.7986545
3.78339,98.8011915
3.78725,98.8076725
3.79111,98.7996645
3.79498,98.805108
3.79884,98.8055935
3.8027,98.7993505
3.80656,98.794108
3.81042,98.794447
3.81428,98.803565
3.81814,98.8006005
3.822,98.792935
3.82586,98.7980295
3.82972,98.8018045
3.83358,98.8025325
3.83744,98.810943
3.8413,98.813472
3.84516,98.812924
3.84902,98.811136
3.85288,98.80906
3.85675,98.8071385
3.86061,98.808424
3.86447,98.8127615
3.86833,98.817267
3.87219,98.8157965
3.87605,98.817046
3.87991,98.805752
3.88377,98.812418
3.88763,98.814257
3.89149,98.7987745
3.89535,98.7989685
3.89921,98.803766
3.90307,98.809699
3.90693,98.8073455
3.91079,98.8088805
3.91465,98.812451
3.91851,98.806806
3.92238,98.8096625
3.92624,98.8069915
3.9301,98.8045155
3.93396,98.8078805
3.93782,98.8157065
3.94168,98.8159955
3.94554,98.821738
3.9494,98.824264
3.95326,98.820701
3.95712,98.826685
3.96098,98.829755
3.96484,98.8232335
3.9687,98.827189
3.97256,98.8249055
3.97642,98.821877
3.98028,98.827187
3.98415,98.834168
3.98801,98.8232335
3.99187,98.822685
3.99573,98.8121435
3.99959,98.8095245
4.00345,98.812543
4.00731,98.8078495
4.01117,98.807651
4.01503,98.811555
4.01889,98.8169545
4.02275,98.8147805
4.02661,98.8168125
4.03047,98.8205665
4.03433,98.81076
4.03819,98.8053595
4.04205,98.81893
4.04591,98.820371
4.04978,98.818154
4.05364,98.812661
4.0575,98.8141815
4.06136,98.8134435
4.06522,98.8131495
4.06908,98.8205655
4.07294,98.8274475
4.0768,98.824479
4.08066,98.8217155
4.08452,98.8179505
4.08838,98.8243695
4.09224,98.816674
4.0961,98.818649
4.09996,98.8071575
4.10382,98.8138455
4.10768,98.8147995
4.11155,98.815535
4.11541,98.8109405
4.11927,98.813265
4.12313,98.8092005
4.12699,98.80584
4.13085,98.8080655
4.13471,98.8078695
4.13857,98.8090055
4.14243,98.801835
4.14629,98.8068365
4.15015,98.8081235
4.15401,98.808474
4.15787,98.8053615
4.16173,98.8078835
4.16559,98.804313
4.16945,98.8037175
4.17331,98.8104535
4.17718,98.814612
4.18104,98.81599
4.1849,98.816208
4.18876,98.8146215
4.19262,98.8123065
4.19648,98.8122635
4.20034,98.8122205
4.2042,98.8121775
4.20806,98.8121345
4.21192,98.8120915
4.21578,98.8120485
4.21964,98.8120055
4.2235,98.8119625
4.22736,98.8119185
4.23122,98.8118755
4.23508,98.8118325
4.23895,98.8117895
4.24281,98.8117465
4.24667,98.8117035
4.25053,98.8116605
4.25439,98.8116175
4.25825,98.8115745
4.26211,98.8115315
4.26597,98.8114885
4.26983,98.811445
4.27369,98.811402
4.27755,98.811359
4.28141,98.811316
4.28527,98.811273
4.28913,98.81123
4.29299,98.811187
4.29685,98.811144
4.30071,98.811101
4.30458,98.811058
4.30844,98.811015
4.3123,98.8109715
4.31616,98.8109285
4.32002,98.8108855
4.32388,98.8108425
4.32774,98.8107995
4.3316,98.8107565
4.33546,98.810713
4.33932,98.81067
4.34318,98.810627
4.34704,98.810584
4.3509,98.8105405
4.35476,98.8104975
4.35862,98.8104545
4.36248,98.8104115
4.36635,98.8103685
4.37021,98.8103255
4.37407,98.8102825
4.37793,98.8102395
4.38179,98.8101965
4.38565,98.8101535
4.38951,98.812787
4.39337,98.807516
4.39723,98.810108
4.40109,98.809461
4.40495,98.81005
4.40881,98.8186005
4.41267,98.8198075
4.41653,98.8140175
4.42039,98.808648
4.42425,98.811584
4.42811,98.8162215
4.43198,98.8194205
4.43584,98.817336
4.4397,98.8186675
4.44356,98.8155945
4.44742,98.8217275
4.45128,98.8297295
4.45514,98.8217065
4.459,98.818047
4.46286,98.819712
4.46672,98.821554
4.47058,98.8267845
4.47444,98.8265495
4.4783,98.825031
4.48216,98.8269875
4.48602,98.8242945
4.48988,98.823525
4.49375,98.8262235
4.49761,98.825805
4.50147,98.810343
4.50533,98.809452
4.50919,98.8073655
4.51305,98.797475
4.51691,98.80045
4.52077,98.799945
4.52463,98.800894
4.52849,98.800854
4.53235,98.8009025
4.53621,98.800611
4.54007,98.802632
4.54393,98.809507
4.54779,98.8117335
4.55165,98.811873
4.55551,98.809701
4.55938,98.802976
4.56324,98.8026765
4.5671,98.8081305
4.57096,98.8119905
4.57482,98.811481
4.57868,98.80544
4.58254,98.808975
4.5864,98.8115495
4.59026,98.8105495
4.59412,98.8135695
4.59798,98.807325
4.60184,98.8065745
4.6057,98.815153
4.60956,98.8147275
4.61342,98.816158
4.61728,98.8187185
4.62115,98.8132295
4.62501,98.812343
4.62887,98.813927
4.63273,98.813673
4.63659,98.8110535
4.64045,98.813439
4.64431,98.813095
4.64817,98.812497
4.65203,98.8174425
4.65589,98.819512
4.65975,98.8147555
4.66361,98.812186
4.66747,98.8072415
4.67133,98.805419
4.67519,98.8076555
4.67905,98.806124
4.68291,98.811562
4.68678,98.817539
4.69064,98.815058
4.6945,98.8069905
4.69836,98.8022925
4.70222,98.80522
4.70608,98.8104695
4.70994,98.809078
4.7138,98.8120885
4.71766,98.8151655
4.72152,98.812445
4.72538,98.810662
4.72924,98.8119505
4.7331,98.8150115
4.73696,98.8133295
4.74082,98.814731
4.74468,98.814676
4.74855,98.8125385
4.75241,98.818744
4.75627,98.818799
4.76013,98.818342
4.76399,98.8199235
4.76785,98.818749
4.77171,98.8119285
4.77557,98.80836
4.77943,98.810574
4.78329,98.8140265
4.78715,98.8102685
4.79101,98.810566
4.79487,98.8118535
4.79873,98.8139425
4.80259,98.8133045
4.80645,98.815619
4.81031,98.808732
4.81418,98.799993
4.81804,98.8038125
4.8219,98.81018
4.82576,98.8095295
4.82962,98.8078605
4.83348,98.805391
4.83734,98.805786
4.8412,98.812653
4.84506,98.8068225
4.84892,98.8016825
4.85278,98.803313
4.85664,98.8035655
4.8605,98.8024205
4.86436,98.8091445
4.86822,98.8078115
4.87208,98.8004895
4.87595,98.80241
4.87981,98.806173
4.88367,98.805487
4.88753,98.807222
4.89139,98.8113715
4.89525,98.814776
4.89911,98.8115175
4.90297,98.804747
4.90683,98.8058275
4.91069,98.8093375
4.91455,98.816525
4.91841,98.8227225
4.92227,98.818372
4.92613,98.8130755
4.92999,98.81817
4.93385,98.82484
4.93771,98.8203275
4.94158,98.813255
4.94544,98.817424
4.9493,98.8245035
4.95316,98.8255745
4.95702,98.8258065
4.96088,98.8195385
4.96474,98.8156945
4.9686,98.8077765
4.97246,98.8069835
4.97632,98.814606
4.98018,98.814463
4.98404,98.8103105
4.9879,98.8108495
4.99176,98.8096025
4.99562,98.8040115
4.99948,98.8061455
5.00335,98.808825
5.00721,98.8064075
5.01107,98.804479
5.01493,98.8125345
5.01879,98.818548
5.02265,98.805034
5.02651,98.8085535
5.03037,98.813709
5.03423,98.8088745
5.03809,98.804026
5.04195,98.800313
5.04581,98.799916
5.04967,98.8020505
5.05353,98.800379
5.05739,98.8004205
5.06125,98.800704
5.06511,98.797586
5.06898,98.8027395
5.07284,98.811809
5.0767,98.819275
5.08056,98.825986
5.08442,98.8218275
5.08828,98.8113945
5.09214,98.8073335
5.096,98.808615
5.09986,98.8131675
5.10372,98.8154495
5.10758,98.8171855
5.11144,98.81664
5.1153,98.8153505
5.11916,98.813682
5.12302,98.8093885
5.12688,98.8085915
5.13075,98.8120395
5.13461,98.8192535
5.13847,98.823013
5.14233,98.827211
5.14619,98.83897
5.15005,98.8199865
5.15391,98.803337
5.15777,98.804971
5.16163,98.80289
5.16549,98.800171
5.16935,98.8012195
5.17321,98.8002835
5.17707,98.798549
5.18093,98.8059205
5.18479,98.808142
5.18865,98.800364
5.19251,98.799078
5.19638,98.817767
5.20024,98.831201
5.2041,98.8144925
5.20796,98.81936
5.21182,98.842259
5.21568,98.8205965
5.21954,98.795085
5.2234,98.797657
5.22726,98.8063635
5.23112,98.8199665
5.23498,98.829753
5.23884,98.8248
5.2427,98.814468
5.24656,98.8052245
5.25042,98.802052
5.25428,98.8019495
5.25814,98.8050255
5.26201,98.80474
5.26587,98.804302
5.26973,98.8127115
5.27359,98.821703
5.27745,98.8158515
5.28131,98.8079365
5.28517,98.814122
5.28903,98.8312735
5.29289,98.8273565
5.29675,98.803135
5.30061,98.8053235
5.30447,98.8157105
5.30833,98.8163585
5.31219,98.8130085
5.31605,98.813367
5.31991,98.812822
5.32378,98.811031
5.32764,98.8135015
5.3315,98.815832
5.33536,98.810444
5.33922,98.808356
5.34308,98.828518
5.34694,98.866685
5.3508,98.8691405
5.35466,98.832538
5.35852,98.809656
5.36238,98.802062
5.36624,98.8000075
5.3701,98.7975925
5.37396,98.795853
5.37782,98.797278
5.38168,98.8004415
5.38554,98.802319
5.38941,98.8013275
5.39327,98.800145
5.39713,98.8020785
5.40099,98.8034615
5.40485,98.806717
5.40871,98.818233
5.41257,98.826637
5.41643,98.848145
5.42029,98.8788475
5.42415,98.8473005
5.42801,98.808348
5.43187,98.802521
5.43573,98.803756
5.43959,98.8131415
5.44345,98.814918
5.44731,98.806618
5.45118,98.804247
5.45504,98.8089955
5.4589,98.839863
5.46276,98.8840215
5.46662,98.8627925
5.47048,98.816064
5.47434,98.8282835
5.4782,98.8403365
5.48206,98.81299
5.48592,98.800495
5.48978,98.797636
5.49364,98.793476
5.4975,98.7944
5.50136,98.7939425
5.50522,98.789047
5.50908,98.789594
5.51294,98.7989935
5.51681,98.816704
5.52067,98.8290265
5.52453,98.8191435
5.52839,98.809453
5.53225,98.8084595
5.53611,98.8019775
5.53997,98.802968
5.54383,98.8201265
5.54769,98.8364825
5.55155,98.845467
5.55541,98.848481
5.55927,98.8301975
5.56313,98.8211095
5.56699,98.8283765
5.57085,98.8384655
5.57471,98.8704095
5.57858,98.88166
5.58244,98.8291765
5.5863,98.7944335
5.59016,98.7890225
5.59402,98.7941335
5.59788,98.8060945
5.60174,98.811175
5.6056,98.802079
5.60946,98.811832
5.61332,98.833246
5.61718,98.8261205
5.62104,98.8015365
5.6249,98.8022245
5.62876,98.8236365
5.63262,98.8479675
5.63648,98.887934
5.64034,98.9392755
5.64421,98.9086135
5.64807,98.843231
5.65193,98.8368455
5.65579,98.827042
5.65965,98.7934155
5.66351,98.782296
5.66737,98.7970315
5.67123,98.8324825
5.67509,98.8468635
5.67895,98.8138785
5.68281,98.7992495
5.68667,98.820763
5.69053,98.827738
5.69439,98.799506
5.69825,98.7779475
5.70211,98.801533
5.70598,98.846769
5.70984,98.871475
5.7137,98.867557
5.71756,98.877947
5.72142,98.872269
5.72528,98.846315
5.72914,98.8372175
5.733,98.8473955
5.73686,98.8395265
5.74072,98.837905
5.74458,98.8654555
5.74844,98.859018
5.7523,98.8143145
5.75616,98.8226385
5.76002,98.8862485
5.76388,98.9673035
5.76774,98.941176
5.77161,98.8445385
5.77547,98.835543
5.77933,98.83193
5.78319,98.795339
5.78705,98.7709275
5.79091,98.7742065
5.79477,98.784944
5.79863,98.8006235
5.80249,98.81042
5.80635,98.8113205
5.81021,98.8297285
5.81407,98.889913
5.81793,98.966198
5.82179,98.9738815
5.82565,98.917982
5.82951,98.883354
5.83338,98.838447
5.83724,98.802215
5.8411,98.8034695
5.84496,98.8158355
5.84882,98.818004
5.85268,98.8315975
5.85654,98.8784205
5.8604,98.91422
5.86426,98.905329
5.86812,98.877992
5.87198,98.886452
5.87584,98.959359
5.8797,99.034939
5.88356,98.967815
5.88742,98.910873
5.89128,98.9505365
5.89514,98.9663695
5.89901,98.874635
5.90287,98.8097065
5.90673,98.812682
5.91059,98.8313815
5.91445,98.8500735
5.91831,98.8575315
5.92217,98.853021
5.92603,98.8627555
5.92989,98.9241255
5.93375,99.0263045
5.93761,99.038926
5.94147,98.9223615
5.94533,98.8688425
5.94919,98.868835
5.95305,98.8502485
5.95691,98.8232195
5.96078,98.8413385
5.96464,98.8925825
5.9685,98.9085025
5.97236,98.864822
5.97622,98.8492885
5.98008,98.8790555
5.98394,98.915398
5.9878,98.9414125
5.99166,98.9062075
5.99552,98.8317355
5.99938,98.800986
6.00324,98.8123215
6.0071,98.846049
6.01096,98.8832715
6.01482,98.8790455
6.01868,98.832598
6.02254,98.801697
6.02641,98.80018
6.03027,98.812011
6.03413,98.836838
6.03799,98.892966
6.04185,99.003407
6.04571,99.1401875
6.04957,99.08047
6.05343,98.8846375
6.05729,98.828278
6.06115,98.868824
6.06501,98.940374
6.06887,99.0047955
6.07273,98.995648
6.07659,98.905115
6.08045,98.8347475
6.08431,98.8191175
6.08818,98.8249065
6.09204,98.8289705
6.0959,98.8308595
6.09976,98.843121
6.10362,98.879252
6.10748,98.943671
6.11134,99.006034
6.1152,98.9567455
6.11906,98.8485935
6.12292,98.8075475
6.12678,98.805128
6.13064,98.8130945
6.1345,98.8348075
6.13836,98.8670015
6.14222,98.8792605
6.14608,98.858038
6.14994,98.846164
6.15381,98.8733135
6.15767,98.9051135
6.16153,98.8859315
6.16539,98.842766
6.16925,98.8263985
6.17311,98.836383
6.17697,98.873223
6.18083,98.9310875
6.18469,98.9498835
6.18855,98.8859415
6.19241,98.8301155
6.19627,98.8133105
6.20013,98.805052
6.20399,98.80074
6.20785,98.807508
6.21171,98.8188335
6.21558,98.8240825
6.21944,98.8237465
6.2233,98.819304
6.22716,98.813224
6.23102,98.813572
6.23488,98.817582
6.23874,98.813974
6.2426,98.805267
6.24646,98.801557
6.25032,98.8025505
6.25418,98.803591
6.25804,98.8061075
6.2619,98.811932
6.26576,98.8175595
6.26962,98.8173055
6.27348,98.810625
6.27734,98.8042905
6.28121,98.8031045
6.28507,98.8042995
6.28893,98.803915
6.29279,98.8017975
6.29665,98.7997745
6.30051,98.7988325
6.30437,98.797884
6.30823,98.7957465
6.31209,98.7924775
6.31595,98.790603
6.31981,98.794521
6.32367,98.8040715
6.32753,98.817028
6.33139,98.839477
6.33525,98.88537
6.33911,98.9521825
6.34298,98.9812115
6.34684,98.9075235
6.3507,98.837846
6.35456,98.8220765
6.35842,98.8289515
6.36228,98.8542165
6.36614,98.899061
6.37,98.921553
6.37386,98.8792685
6.37772,98.8391245
6.38158,98.842305
6.38544,98.864761
6.3893,98.8709325
6.39316,98.8552915
6.39702,98.853456
6.40088,98.891832
6.40474,98.975511
6.40861,99.105627
6.41247,99.2247595
6.41633,99.1444315
6.42019,98.980376
6.42405,98.904753
6.42791,98.908611
6.43177,98.915095
6.43563,98.8890925
6.43949,98.8599745
6.44335,98.8627985
6.44721,98.883816
6.45107,98.8870315
6.45493,98.86271
6.45879,98.8441795
6.46265,98.8577875
6.46651,98.8937325
6.47038,98.9317885
6.47424,98.960739
6.4781,98.9927255
6.48196,99.0391745
6.48582,99.094241
6.48968,99.1578105
6.49354,99.165864
6.4974,99.0248965
6.50126,98.8885015
6.50512,98.8370295
6.50898,98.844652
6.51284,98.881941
6.5167,98.9220425
6.52056,98.9255395
6.52442,98.8876935
6.52828,98.8493195
6.53214,98.8399905
6.53601,98.8525175
6.53987,98.873983
6.54373,98.8932145
6.54759,98.905672
6.55145,98.9157585
6.55531,98.9161495
6.55917,98.918372
6.56303,98.950712
6.56689,99.0109865
6.57075,99.0454915
6.57461,98.998166
6.57847,98.9246975
6.58233,98.9002395
6.58619,98.9270995
6.59005,98.9521085
6.59391,98.930424
6.59778,98.875129
6.60164,98.8438405
6.6055,98.842714
6.60936,98.8497795
6.61322,98.8514455
6.61708,98.8586025
6.62094,98.8890075
6.6248,98.947943
6.62866,99.0291205
6.63252,99.105544
6.63638,99.1091445
6.64024,98.9844135
6.6441,98.845751
6.64796,98.7983535
6.65182,98.795545
6.65568,98.7991515
6.65954,98.8033955
6.66341,98.8151595
6.66727,98.834302
6.67113,98.8524135
6.67499,98.8642465
6.67885,98.868956
6.68271,98.853683
6.68657,98.8015615
6.69043,98.76116
6.69429,98.758246
6.69815,98.784605
6.70201,98.8324675
6.70587,98.8852145
6.70973,98.9144145
6.71359,98.903021
6.71745,98.8701375
6.72131,98.8437935
6.72518,98.8110645
6.72904,98.778727
6.7329,98.760729
6.73676,98.7563805
6.74062,98.7608815
6.74448,98.7698805
6.74834,98.779424
6.7522,98.783931
6.75606,98.7825585
6.75992,98.788003
6.76378,98.806395
6.76764,98.8317565
6.7715,98.850494
6.77536,98.8586505
6.77922,98.8689345
6.78308,98.9022105
6.78694,98.945915
6.79081,98.9338885
6.79467,98.874399
6.79853,98.8211
6.80239,98.7957945
6.80625,98.7934325
6.81011,98.801945
6.81397,98.8184635
6.81783,98.848676
6.82169,98.877503
6.82555,98.8780945
6.82941,98.850651
6.83327,98.8176735
6.83713,98.8058105
6.84099,98.8170845
6.84485,98.8474405
6.84871,98.8934705
6.85258,98.9520655
6.85644,99.0073035
6.8603,99.02674
6.86416,98.977625
6.86802,98.8739545
6.87188,98.815258
6.87574,98.795442
6.8796,98.795458
6.88346,98.800019
6.88732,98.8004225
6.89118,98.7947885
6.89504,98.793351
6.8989,98.801746
6.90276,98.8092495
6.90662,98.8069705
6.91048,98.7949605
6.91434,98.7825635
6.91821,98.7778255
6.92207,98.773124
6.92593,98.766143
6.92979,98.7595095
6.93365,98.7560955
6.93751,98.7577815
6.94137,98.7638695
6.94523,98.774849
6.94909,98.7962605
6.95295,98.8264735
6.95681,98.851001
6.96067,98.846946
6.96453,98.8017955
6.96839,98.778454
6.97225,98.7755865
6.97611,98.782361
6.97998,98.790222
6.98384,98.7991685
6.9877,98.8136035
6.99156,98.819286
6.99542,98.8111245
6.99928,98.794562
7.00314,98.7797855
7.007,98.775345
7.01086,98.7799455
7.01472,98.7901255
7.01858,98.799706
7.02244,98.8029585
7.0263,98.795739
7.03016,98.7955535
7.03402,98.811483
7.03788,98.8373395
7.04174,98.8605615
7.04561,98.8637975
7.04947,98.830506
7.05333,98.8028215
7.05719,98.784935
7.06105,98.7749105
7.06491,98.7677995
7.06877,98.7646905
7.07263,98.765884
7.07649,98.768858
7.08035,98.771486
7.08421,98.772036
7.08807,98.7692705
7.09193,98.766059
7.09579,98.764479
7.09965,98.7660125
7.10351,98.772192
7.10738,98.785285
7.11124,98.7983755
7.1151,98.803756
7.11896,98.7984635
7.12282,98.783044
7.12668,98.774052
7.13054,98.775885
7.1344,98.788642
7.13826,98.8106445
7.14212,98.837098
7.14598,98.845798
7.14984,98.838229
7.1537,98.8266535
7.15756,98.8249665
7.16142,98.842465
7.16528,98.851558
7.16914,98.841026
7.17301,98.8127485
7.17687,98.781955
7.18073,98.773361
7.18459,98.7748535
7.18845,98.782033
7.19231,98.7913395
7.19617,98.8063335
7.20003,98.826608
7.20389,98.8442505
7.20775,98.8541205
7.21161,98.84891
7.21547,98.842433
7.21933,98.8401665
7.22319,98.840672
7.22705,98.8404325
7.23091,98.833661
7.23478,98.82506
7.23864,98.817102
7.2425,98.8119615
7.24636,98.809534
7.25022,98.803392
7.25408,98.7942815
7.25794,98.783938
7.2618,98.7814145
7.26566,98.7910555
7.26952,98.8045485
7.27338,98.8159115
7.27724,98.8112545
7.2811,98.7948925
7.28496,98.7810585
7.28882,98.773952
7.29268,98.776928
7.29654,98.78361
7.30041,98.789698
7.30427,98.7938095
7.30813,98.794264
7.31199,98.7929365
7.31585,98.7923455
7.31971,98.7938245
7.32357,98.7998965
7.32743,98.812746
7.33129,98.8250585
7.33515,98.8324825
7.33901,98.823939
7.34287,98.8054035
7.34673,98.7870085
7.35059,98.7719705
7.35445,98.7636015
7.35831,98.758552
7.36218,98.754744
7.36604,98.751583
7.3699,98.7507855
7.37376,98.753295
7.37762,98.7568945
7.38148,98.760153
7.38534,98.758622
7.3892,98.756199
7.39306,98.7544175
7.39692,98.755456
7.40078,98.7605075
7.40464,98.7655605
7.4085,98.769328
7.41236,98.768642
7.41622,98.765632
7.42008,98.763067
7.42394,98.7617875
7.42781,98.763276
7.43167,98.7651575
7.43553,98.766889
7.43939,98.7676785
7.44325,98.7691105
7.44711,98.77425
7.45097,98.783691
7.45483,98.7995545
7.45869,98.813732
7.46255,98.823163
7.46641,98.825477
7.47027,98.820589
7.47413,98.8147135
7.47799,98.8078965
7.48185,98.7988465
7.48571,98.7893985
7.48958,98.782576
7.49344,98.7798135
7.4973,98.7841275
7.50116,98.7890815
7.50502,98.7938845
7.50888,98.79646
7.51274,98.796015
7.5166,98.7935875
7.52046,98.7892755
7.52432,98.7858025
7.52818,98.784558
7.53204,98.7854445
7.5359,98.7889585
7.53976,98.793413
7.54362,98.7982635
7.54748,98.802915
7.55134,98.8046485
7.55521,98.804208
7.55907,98.8015435
7.56293,98.7988305
7.56679,98.7976955
7.57065,98.797792
7.57451,98.798669
7.57837,98.798655
7.58223,98.7985465
7.58609,98.7985955
7.58995,98.8012765
7.59381,98.80475
7.59767,98.8087675
7.60153,98.8103035
7.60539,98.810153
7.60925,98.808268
7.61311,98.8032135
7.61698,98.796381
7.62084,98.789058
7.6247,98.783672
7.62856,98.7817975
7.63242,98.7813075
7.63628,98.7815055
7.64014,98.7814555
7.644,98.7825455
7.64786,98.785372
7.65172,98.7901305
7.65558,98.794145
7.65944,98.7970195
7.6633,98.7969665
7.66716,98.7958235
7.67102,98.793541
7.67488,98.790174
7.67874,98.787651
7.68261,98.785922
7.68647,98.7856765
7.69033,98.7852315
7.69419,98.7847365
7.69805,98.784689
7.70191,98.785632
7.70577,98.786872
7.70963,98.787466
7.71349,98.786967
7.71735,98.785971
7.72121,98.7850225
7.72507,98.7841275
7.72893,98.7834335
7.73279,98.783337
7.73665,98.7840325
7.74051,98.7847285
7.74438,98.784581
7.74824,98.783693
7.7521,98.7827565
7.75596,98.782465
7.75982,98.7821225
7.76368,98.781531
7.76754,98.780294
7.7714,98.7799465
7.77526,98.780191
7.77912,98.7816205
7.78298,98.783445
7.78684,98.785369
7.7907,98.7871965
7.79456,98.7883825
7.79842,98.7891735
7.80228,98.7897165
7.80614,98.7907545
7.81001,98.791892
7.81387,98.7921435
7.81773,98.7909635
7.82159,98.7889935
7.82545,98.788063
7.82931,98.7885135
7.83317,98.789901
7.83703,98.790245
7.84089,98.7894005
7.84475,98.787269
7.84861,98.786029
7.85247,98.786322
7.85633,98.7887405
7.86019,98.792296
7.86405,98.795209
7.86791,98.7967885
7.87178,98.796693
7.87564,98.7962035
7.8795,98.795618
7.88336,98.795029
7.88722,98.794388
7.89108,98.7940405
7.89494,98.7943355
7.8988,98.7951755
7.90266,98.796165
7.90652,98.796265
7.91038,98.7953275
7.91424,98.793549
7.9181,98.7923625
7.92196,98.7925085
7.92582,98.7950275
7.92968,98.7984375
7.93354,98.802642
7.93741,98.805859
7.94127,98.8082855
7.94513,98.807987
7.94899,98.806992
7.95285,98.8051525
7.95671,98.805638
7.96057,98.8081045
7.96443,98.813939
7.96829,98.8207675
7.97215,98.8271025
7.97601,98.82948
7.97987,98.82859
7.98373,98.8253235
7.98759,98.820723
7.99145,98.817065
7.99531,98.815045
7.99918,98.816244
8.00304,98.8187285
8.0069,98.8230875
8.01076,98.8269465
8.01462,98.8304065
8.01848,98.8323295
8.02234,98.834253
8.0262,98.836227
8.03006,98.839391
8.03392,98.842852
8.03778,98.8458685
8.04164,98.846708
8.0455,98.8457165
8.04936,98.8414625
8.05322,98.8371095
8.05708,98.8330055
8.06094,98.8309285
8.06481,98.829841
8.06867,98.8307815
8.07253,98.8320205
8.07639,98.833657
8.08025,98.833859
8.08411,98.8329715
8.08797,98.828814
8.09183,98.823466
8.09569,98.817324
8.09955,98.8141025
8.10341,98.81212
8.10727,98.812369
8.11113,98.811731
8.11499,98.8107485
8.11885,98.8083305
8.12271,98.8064055
8.12658,98.8050725
8.13044,98.8041845
8.1343,98.803445
8.13816,98.802608
8.14202,98.8022635
8.14588,98.80261
8.14974,98.803888
8.1536,98.8055605
8.15746,98.8073275
8.16132,98.809048
8.16518,98.8106715
8.16904,98.8125475
8.1729,98.8143755
8.17676,98.815761
8.18062,98.816653
8.18448,98.816805
8.18834,98.8153255
8.19221,98.813152
8.19607,98.809145
8.19993,98.805086
8.20379,98.801075
8.20765,98.7993875
8.21151,98.798739
8.21537,98.802297
8.21923,98.805708
8.22309,98.8090725
8.22695,98.8087305
8.23081,98.8065595
8.23467,98.801519
8.23853,98.7971685
8.24239,98.7946935
8.24625,98.793751
8.25011,98.7939445
8.25398,98.794193
8.25784,98.794492
8.2617,98.79534
8.26556,98.7972775
8.26942,98.8004025
8.27328,98.8039705
8.27714,98.8076375
8.281,98.8099145
8.28486,98.8121905
8.28872,98.814514
8.29258,98.8174785
8.29644,98.8208875
8.3003,98.82296
8.30416,98.824242
8.30802,98.8225585
8.31188,98.820087
8.31574,98.8167285
8.31961,98.8144115
8.32347,98.8124905
8.32733,98.8122945
8.33119,98.812294
8.33505,98.812831
8.33891,98.8143585
8.34277,98.816529
8.34663,98.8199425
8.35049,98.8235055
8.35435,98.8249425
8.35821,98.825091
8.36207,98.8226135
8.36593,98.8201325
8.36979,98.817601
8.37365,98.8175925
8.37751,98.818328
8.38138,98.8213435
8.38524,98.825103
8.3891,98.8303015
8.39296,98.8362455
8.39682,98.8426855
8.40068,98.848631
8.40454,98.854378
8.4084,98.8588335
8.41226,98.8626445
8.41612,98.8650675
8.41998,98.866255
8.42384,98.866206
8.4277,98.8653185
8.43156,98.864135
8.43542,98.86429
8.43928,98.864692
8.44314,98.8663305
8.44701,98.8675205
8.45087,98.868262
8.45473,98.8678105
8.45859,98.866863
8.46245,98.865819
8.46631,98.8650245
8.47017,98.865574
8.47403,98.8666675
8.47789,98.8689475
8.48175,98.87147
8.48561,98.8742345
8.48947,98.87695
8.49333,98.879715
8.49719,98.88323
8.50105,98.8868945
8.50491,98.8907585
8.50878,98.8941255
8.51264,98.8958555
8.5165,98.896399
8.52036,98.8956065
8.52422,98.894569
8.52808,98.8935335
8.53194,98.893781
8.5358,98.894375
8.53966,98.8962
8.54352,98.897876
8.54738,98.89891
8.55124,98.899253
8.5551,98.898363
8.55896,98.897476
8.56282,98.8965425
8.56668,98.896897
8.57054,98.897649
8.57441,98.8978525
8.57827,98.897808
8.58213,98.8946385
8.58599,98.891519
8.58985,98.888446
8.59371,98.88676
8.59757,98.8876485
8.60143,98.889132
8.60529,98.89126
8.60915,98.89205
8.61301,98.8920965
8.61687,98.891947
8.62073,98.8917485
8.62459,98.8932875
8.62845,98.8950245
8.63231,98.8972095
8.63618,98.8990465
8.64004,98.899396
8.6439,98.898951
8.64776,98.897066
8.65162,98.8948835
8.65548,98.8925025
8.65934,98.890272
8.6632,98.8880435
8.66706,98.885029
8.67092,98.8817185
8.67478,98.8781155
8.67864,98.874562
8.6825,98.8724415
8.68636,98.87022
8.69022,98.867345
8.69408,98.8640725
8.69794,98.859359
8.70181,98.8557855
8.70567,98.854094
8.70953,98.8549815
8.71339,98.858745
8.71725,98.8619685
8.72111,98.8647015
8.72497,98.8633275
8.72883,98.8599755
8.73269,98.8564225
8.73655,98.85277
8.74041,98.8544065
8.74427,98.8569825
8.74813,98.861133
8.75199,98.8652815
8.75585,98.865614
8.75971,98.865897
8.76357,98.8659845
8.76744,98.867113
8.7713,98.872259
8.77516,98.8780515
8.77902,98.8854355
8.78288,98.8908405
8.78674,98.892782
8.7906,98.8917485
8.79446,98.886898
8.79832,98.88229
8.80218,98.8780235
8.80604,98.876083
8.8099,98.876024
8.81376,98.8758215
8.81762,98.875522
8.82148,98.8731005
8.82534,98.8697905
8.82921,98.866236
8.83307,98.8626335
8.83693,98.861059
8.84079,98.859979
8.84465,98.861517
8.84851,98.86345
8.85237,98.8676575
8.85623,98.8721615
8.86009,98.8764715
8.86395,98.8807825
8.86781,98.880441
8.87167,98.8798025
8.87553,98.8730675
8.87939,98.8661835
8.88325,98.8578085
8.88711,98.8498295
8.89097,98.8465545
8.89484,98.8440225
8.8987,98.848127
8.90256,98.8525295
8.90642,98.8597065
8.91028,98.866438
8.91414,98.870596
8.918,98.8741605
8.92186,98.8747555
8.92572,98.8754495
8.92958,98.8764415
8.93344,98.87783
8.9373,98.8805045
8.94116,98.8828815
8.94502,98.884216
8.94888,98.884957
8.95274,98.883321
8.95661,98.881488
8.96047,98.8790655
8.96433,98.8770395
8.96819,98.876798
8.97205,98.876753
8.97591,98.8782375
8.97977,98.879721
8.98363,98.881443
8.98749,98.8834125
8.99135,98.886865
8.99521,98.8904675
8.99907,98.8954155
9.00293,98.900167
9.00679,98.90295
9.01065,98.905435
9.01451,98.9050505
9.01837,98.904567
9.02224,98.902193
9.0261,98.899819
9.02996,98.896448
9.03382,98.893077
9.03768,98.8924285
9.04154,98.8917305
9.0454,98.895688
9.04926,98.899893
9.05312,98.9044475
9.05698,98.909101
9.06084,98.9106415
9.0647,98.911737
9.06856,98.9112
9.07242,98.910266
9.07628,98.909277
9.08014,98.9083355
9.08401,98.907289
9.08787,98.906339
9.09173,98.9052415
9.09559,98.9040455
9.09945,98.902212
9.10331,98.8998385
9.10717,98.8962805
9.11103,98.8915385
9.11489,98.8865465
9.11875,98.8810575
9.12261,98.876159
9.12647,98.8725395
9.13033,98.8697595
9.13419,98.869647
9.13805,98.8703265
9.14191,98.87457
9.14577,98.8789625
9.14964,98.8846475
9.1535,98.8903815
9.15736,98.8914225
9.16122,98.8923645
9.16508,98.8886595
9.16894,98.884411
9.1728,98.881103
9.17666,98.877944
9.18052,98.87706
9.18438,98.8771655
9.18824,98.877171
9.1921,98.8771755
9.19596,98.8764375
9.19982,98.8748575
9.20368,98.872982
9.20754,98.8704645
9.21141,98.868096
9.21527,98.8662745
9.21913,98.8648985
9.22299,98.865949
9.22685,98.866999
9.23071,98.8700275
9.23457,98.8730065
9.23843,98.8754865
9.24229,98.8779165
9.24615,98.878758
9.25001,98.8791035
9.25387,98.877617
9.25773,98.875042
9.26159,98.871923
9.26545,98.8683105
9.26931,98.865487
9.27317,98.8642405
9.27704,98.863388
9.2809,98.8644535
9.28476,98.865618
9.28862,98.8675755
9.29248,98.869533
9.29634,98.872199
9.3002,98.8748675
9.30406,98.8772
9.30792,98.879388
9.31178,98.880289
9.31564,98.880051
9.3195,98.879166
9.32336,98.877038
9.32722,98.8749095
9.33108,98.8724295
9.33494,98.8699
9.33881,98.8666805
9.34267,98.863511
9.34653,98.860445
9.35039,98.8572815
9.35425,98.856098
9.35811,98.855756
9.36197,98.85675
9.36583,98.85913
9.36969,98.8613625
9.37355,98.863202
9.37741,98.864695
9.38127,98.863367
9.38513,98.8619885
9.38899,98.858821
9.39285,98.855456
9.39671,98.8538675
9.40057,98.8529705
9.40444,98.8540045
9.4083,98.856919
9.41216,98.859884
9.41602,98.862951
9.41988,98.865969
9.42374,98.8678035
9.4276,98.8696375
9.43146,98.8712755
9.43532,98.872964
9.43918,98.8736095
9.44304,98.8738085
9.4469,98.8731635
9.45076,98.871426
9.45462,98.8697865
9.45848,98.868841
9.46234,98.8678955
9.46621,98.869478
9.47007,98.87116
9.47393,98.874226
9.47779,98.877737
9.48165,98.8813925
9.48551,98.8851925
9.48937,98.8886465
9.49323,98.890963
9.49709,98.89333
9.50095,98.8941265
9.50481,98.894874
9.50867,98.8953815
9.51253,98.8957935
9.51639,98.89566
9.52025,98.894932
9.52411,98.893806
9.52797,98.89094
9.53184,98.888173
9.5357,98.885796
9.53956,98.8834185
9.54342,98.8824725
9.54728,98.882318
9.55114,98.882112
9.555,98.8819535
9.55886,98.8817455
9.56272,98.8808445
9.56658,98.879895
9.57044,98.8807325
9.5743,98.881918
9.57816,98.884197
9.58202,98.8874205
9.58588,98.8900505
9.58974,98.8907025
9.59361,98.891355
9.59747,98.8880425
9.60133,98.8845815
9.60519,98.880028
9.60905,98.875027
9.61291,98.870027
9.61677,98.8651265
9.62063,98.8603255
9.62449,98.857456
9.62835,98.854537
9.63221,98.8546845
9.63607,98.856067
9.63993,98.8587355
9.64379,98.8635805
9.64765,98.868474
9.65151,98.8735685
9.65537,98.878613
9.65924,98.8820745
9.6631,98.884942
9.66696,98.886967
9.67082,98.887853
9.67468,98.8887885
9.67854,98.890122
9.6824,98.8915545
9.68626,98.8934365
9.69012,98.8954185
9.69398,98.896065
9.69784,98.8946345
9.7017,98.8930055
9.70556,98.8864255
9.70942,98.8798955
9.71328,98.871878
9.71714,98.863216
9.72101,98.8553955
9.72487,98.84901
9.72873,98.8426245
9.73259,98.8413895
9.73645,98.840253
9.74031,98.842385
9.74417,98.846547
9.74803,98.8511045
9.75189,98.857147
9.75575,98.8631395
9.75961,98.867598
9.76347,98.871809
9.76733,98.874487
9.77119,98.8755815
9.77505,98.876429
9.77891,98.8759425
9.78277,98.8754555
9.78664,98.875857
9.7905,98.8766035
9.79436,98.877744
9.79822,98.879821
9.80208,98.881898
9.80594,98.8833315
9.8098,98.884666
9.81366,98.885605
9.81752,98.8862485
9.82138,98.8867915
9.82524,98.8873825
9.8291,98.8878745
9.83296,98.887524
9.83682,98.886826
9.84068,98.8855855
9.84454,98.883011
9.84841,98.8804865
9.85227,98.8784105
9.85613,98.876384
9.85999,98.874602
9.86385,98.8733125
9.86771,98.871973
9.87157,98.868398
9.87543,98.864873
9.87929,98.861398
9.88315,98.858023
9.88701,98.85554
9.89087,98.8588095
9.89473,98.862078
9.89859,98.8687665
9.90245,98.87709
9.90631,98.884423
9.91017,98.8889305
9.91404,98.8934375
9.9179,98.892546
9.92176,98.8902675
9.92562,98.8870485
9.92948,98.8819975
9.93334,98.876997
9.9372,98.8728385
9.94106,98.868829
9.94492,98.865662
9.94878,98.8637345
9.95264,98.861807
9.9565,98.8615135
9.96036,98.861318
9.96422,98.8615665
9.96808,98.862209
9.97194,98.8629
9.97581,98.863789
9.97967,98.8647275
9.98353,98.8655695
9.98739,98.866415
9.99125,98.8672605
9.99511,98.867664
9.99897,98.868067
10.0028,98.868321
10.0067,98.8684265
10.0106,98.8685315
10.0144,98.8684365
10.0183,98.868341
10.0221,98.867799
10.026,98.8667605
10.0299,98.865723
10.0337,98.8642875
10.0376,98.8628035
10.0414,98.862111
10.0453,98.862211
10.0492,98.8622615
10.053,98.863106
10.0569,98.86395
10.0607,98.863854
10.0646,98.862322
10.0685,98.860839
10.0723,98.856877
10.0762,98.852667
10.08,98.8482565
10.0839,98.8434955
10.0878,98.840432
10.0916,98.8402815
10.0955,98.8398355
10.0993,98.83865
10.1032,98.8355405
10.1071,98.832431
10.1109,98.8287295
10.1148,98.8245835
10.1186,98.8211775
10.1225,98.818806
10.1264,98.8164345
10.1302,98.815394
10.1341,98.815932
10.138,98.8165195
10.1418,98.818441
10.1457,98.820856
10.1495,98.823175
10.1534,98.82604
10.1573,98.828905
10.1611,98.830639
10.165,98.832521
10.1688,98.833514
10.1727,98.833173
10.1766,98.832881
10.1804,98.830217
10.1843,98.827354
10.1881,98.8242435
10.192,98.8199455
10.1959,98.815203
10.1997,98.8111995
10.2036,98.8070965
10.2074,98.802993
10.2113,98.803086
10.2152,98.803228
10.219,98.805594
10.2229,98.8122575
10.2267,98.8184775
10.2306,98.826774
10.2345,98.834825
10.2383,98.842827
10.2422,98.8465845
10.246,98.850391
10.2499,98.851185
10.2538,98.849609
10.2576,98.847539
10.2615,98.8440845
10.2654,98.840975
10.2692,98.8376185
10.2731,98.8351985
10.2769,98.8327785
10.2808,98.8300615
10.2847,98.8271965
10.2885,98.8243315
10.2924,98.820133
10.2962,98.815935
10.3001,98.812971
10.304,98.8124755
10.3078,98.811437
10.3117,98.8145955
10.3155,98.819335
10.3194,98.824518
10.3233,98.828666
10.3271,98.8333075
10.331,98.8363185
10.3348,98.835775
10.3387,98.835231
10.3426,98.832711
10.3464,98.829302
10.3503,98.825893
10.3541,98.8243125
10.358,98.822732
10.3619,98.8224365
10.3657,98.824365
10.3696,98.826244
10.3734,98.8281735
10.3773,98.830893
10.3812,98.8335635
10.385,98.835147
10.3889,98.836138
10.3928,98.8368815
10.3966,98.8373275
10.4005,98.8372805
10.4043,98.8373295
10.4082,98.83723
10.4121,98.8370805
10.4159,98.836929
10.4198,98.8370735
10.4236,98.836823
10.4275,98.836673
10.4314,98.836473
10.4352,98.8359785
10.4391,98.834844
10.4429,98.83371
10.4468,98.8316875
10.4507,98.829221
10.4545,98.8267545
10.4584,98.8252245
10.4622,98.823645
10.4661,98.8227075
10.47,98.8240405
10.4738,98.8248805
10.4777,98.82651
10.4815,98.8289795
10.4854,98.831449
10.4893,98.83298
10.4931,98.8333755
10.497,98.834265
10.5008,98.832981
10.5047,98.831648
10.5086,98.82992
10.5124,98.828933
10.5163,98.8274525
10.5202,98.827898
10.524,98.8291825
10.5279,98.830467
10.5317,98.834615
10.5356,98.8399475
10.5395,98.8447865
10.5433,98.8507105
10.5472,98.8561905
10.551,98.8612255
10.5549,98.8616675
10.5588,98.8625535
10.5626,98.860625
10.5665,98.8544005
10.5703,98.8481755
10.5742,98.841161
10.5781,98.833504
10.5819,98.8258475
10.5858,98.821944
10.5896,98.81888
10.5935,98.8158655
10.5974,98.821396
10.6012,98.8263835
10.6051,98.832804
10.6089,98.843376
10.6128,98.853998
10.6167,98.8636335
10.6205,98.87258
10.6244,98.881477
10.6282,98.885879
10.6321,98.8878105
10.636,98.889742
10.6398,98.887223
10.6437,98.882382
10.6476,98.8780345
10.6514,98.8719055
10.6553,98.8651845
10.6591,98.858661
10.663,98.8538685
10.6669,98.849076
10.6707,98.84458
10.6746,98.8415665
10.6784,98.8385035
10.6823,98.8358845
10.6862,98.8331175
10.69,98.830893
10.6939,98.828769
10.6977,98.827139
10.7016,98.825509
10.7055,98.824621
10.7093,98.8245725
10.7132,98.8240305
10.717,98.8227955
10.7209,98.821313
10.7248,98.8193865
10.7286,98.814298
10.7325,98.8092095
10.7363,98.804171
10.7402,98.7981955
10.7441,98.7922695
10.7479,98.786442
10.7518,98.7821955
10.7556,98.778492
10.7595,98.7749355
10.7634,98.7718715
10.7672,98.7692515
10.7711,98.7670275
10.775,98.765791
10.7788,98.7645055
10.7827,98.764802
10.7865,98.766878
10.7904,98.7684605
10.7943,98.7707835
10.7981,98.7742915
10.802,98.77775
10.8058,98.781058
10.8097,98.783872
10.8136,98.787179
10.8174,98.7899935
10.8213,98.792907
10.8251,98.7958205
10.829,98.7985395
10.8329,98.801456
10.8367,98.803879
10.8406,98.8055595
10.8444,98.8072395
10.8483,98.808821
10.8522,98.809462
10.856,98.8100535
10.8599,98.8111875
10.8637,98.812867
10.8676,98.814497
10.8715,98.815732
10.8753,98.816721
10.8792,98.8176605
10.883,98.8177605
10.8869,98.815191
10.8908,98.812128
10.8946,98.809361
10.8985,98.8060985
10.9024,98.802342
10.9062,98.800018
10.9101,98.7999665
10.9139,98.800458
10.9178,98.8007035
10.9217,98.800259
10.9255,98.8003085
10.9294,98.798828
10.9332,98.7946825
10.9371,98.7905365
10.941,98.786737
10.9448,98.7836295
10.9487,98.780522
10.9525,98.7794395
10.9564,98.782899
10.9603,98.7859145
10.9641,98.7900155
10.968,98.7959435
10.9718,98.802365
10.9757,98.808491
10.9796,98.8136305
10.9834,98.8192145
10.9873,98.8248985
10.9911,98.830486
10.995,98.8365675
10.9989,98.8426985
11.0027,98.8499645
11.0066,98.8566875
11.0104,98.863655
11.0143,98.8683945
11.0182,98.873627
11.022,98.877229
11.0259,98.8762825
11.0298,98.8748915
11.0336,98.873354
11.0375,98.870437
11.0413,98.867471
11.0452,98.864704
11.0491,98.8646585
11.0529,98.864169
11.0568,98.863926
11.0606,98.861753
11.0645,98.85958
11.0684,98.8572095
11.0722,98.8476215
11.0761,98.8380825
11.0799,98.8285435
11.0838,98.815943
11.0877,98.803342
11.0915,98.790248
11.0954,98.7806635
11.0992,98.7714255
11.1031,98.7621875
11.107,98.757642
11.1108,98.7540845
11.1147,98.7504775
11.1185,98.752255
11.1224,98.75581
11.1263,98.759415
11.1301,98.7669245
11.134,98.776954
11.1378,98.7864895
11.1417,98.7954815
11.1456,98.803535
11.1494,98.812082
11.1533,98.8153405
11.1572,98.813507
11.161,98.8111795
11.1649,98.8070725
11.1687,98.7990595
11.1726,98.7910465
11.1765,98.784171
11.1803,98.7826825
11.1842,98.7807005
11.188,98.780003
11.1919,98.7866235
11.1958,98.7937375
11.1996,98.800308
11.2035,98.8067345
11.2073,98.813704
11.2112,98.82018
11.2151,98.8223095
11.2189,98.8236485
11.2228,98.8244445
11.2266,98.82282
11.2305,98.8200585
11.2344,98.816804
11.2382,98.8130045
11.2421,98.808364
11.2459,98.8037235
11.2498,98.799279
11.2537,98.7945855
11.2575,98.790336
11.2614,98.785987
11.2652,98.7831675
11.2691,98.7798545
11.273,98.7766895
11.2768,98.7765895
11.2807,98.77649
11.2846,98.77639
11.2884,98.779159
11.2923,98.7818305
11.2961,98.784551
11.3,98.7870245
11.3039,98.788955
11.3077,98.791379
11.3116,98.7927145
11.3154,98.792467
11.3193,98.7927135
11.3232,98.793453
11.327,98.7956735
11.3309,98.7978935
11.3347,98.8004105
11.3386,98.8056955
11.3425,98.810981
11.3463,98.8167595
11.3502,98.8210585
11.354,98.8248645
11.3579,98.82867
11.3618,98.830006
11.3656,98.8293675
11.3695,98.829222
11.3733,98.827792
11.3772,98.8254225
11.3811,98.8226085
11.3849,98.8205345
11.3888,98.8191995
11.3926,98.8178645
11.3965,98.81648
11.4004,98.8175665
11.4042,98.8187525
11.4081,98.819889
11.412,98.821769
11.4158,98.824292
11.4197,98.8263215
11.4235,98.8264725
11.4274,98.8236105
11.4313,98.821242
11.4351,98.81749
11.439,98.8103255
11.4428,98.803655
11.4467,98.7964905
11.4506,98.793326
11.4544,98.7907535
11.4583,98.788181
11.4621,98.789708
11.466,98.793013
11.4699,98.7968115
11.4737,98.800264
11.4776,98.8031235
11.4814,98.806032
11.4853,98.8083975
11.4892,98.8077525
11.493,98.807157
11.4969,98.806562
11.5007,98.806268
11.5046,98.806272
11.5085,98.8062265
11.5123,98.808356
11.5162,98.8127095
11.52,98.816619
11.5239,98.820973
11.5278,98.8274485
11.5316,98.8333815
11.5355,98.839808
11.5394,98.843318
11.5432,98.8468765
11.5471,98.8499415
11.5509,98.850091
11.5548,98.8480655
11.5587,98.8459905
11.5625,98.84352
11.5664,98.8397135
11.5702,98.8354625
11.5741,98.8311625
11.578,98.8294285
11.5818,98.8277445
11.5857,98.82606
11.5895,98.8262035
11.5934,98.8281745
11.5973,98.8301455
11.6011,98.831722
11.605,98.8332005
11.6088,98.8341855
11.6127,98.835664
11.6166,98.833784
11.6204,98.8309155
11.6243,98.8285905
11.6281,98.8255245
11.632,98.821619
11.6359,98.8177135
11.6397,98.813808
11.6436,98.8115355
11.6474,98.809213
11.6513,98.8069405
11.6552,98.8046695
11.659,98.8025485
11.6629,98.8003775
11.6668,98.798108
11.6706,98.7938135
11.6745,98.789026
11.6783,98.784732
11.6822,98.7793005
11.6861,98.7741645
11.6899,98.768486
11.6938,98.7641895
11.6976,98.762362
11.7015,98.7600905
11.7054,98.758312
11.7092,98.7608825
11.7131,98.763996
11.7169,98.7671095
11.7208,98.768349
11.7247,98.7673785
11.7285,98.7659195
11.7324,98.763973
11.7362,98.760551
11.7401,98.7576225
11.744,98.7542005
11.7478,98.7517655
11.7517,98.749819
11.7555,98.747384
11.7594,98.7464185
11.7633,98.747899
11.7671,98.749873
11.771,98.7513535
11.7748,98.7557735
11.7787,98.760681
11.7826,98.766077
11.7864,98.771473
11.7903,98.776381
11.7942,98.781777
11.798,98.786679
11.8019,98.7896295
11.8057,98.792086
11.8096,98.7940545
11.8135,98.7950415
11.8173,98.7935775
11.8212,98.7926065
11.825,98.791636
11.8289,98.790177
11.8328,98.7892065
11.8366,98.788241
11.8405,98.7872705
11.8443,98.7872815
11.8482,98.787292
11.8521,98.787303
11.8559,98.787303
11.8598,98.7882845
11.8636,98.7882845
11.8675,98.7882845
11.8714,98.788279
11.8752,98.787292
11.8791,98.787287
11.8829,98.786305
11.8868,98.785329
11.8907,98.7838595
11.8945,98.78239
11.8984,98.779944
11.9022,98.777498
11.9061,98.7750525
11.91,98.7730895
11.9138,98.7706325
11.9177,98.768176
11.9216,98.7657195
11.9254,98.7637455
11.9293,98.762265
11.9331,98.759803
11.937,98.7573405
11.9409,98.754385
11.9447,98.751435
11.9486,98.7484795
11.9524,98.745036
11.9563,98.7410985
11.9602,98.737655
11.964,98.735681
11.9679,98.7351715
11.9717,98.734667
11.9756,98.734157
11.9795,98.739043
11.9833,98.743436
11.9872,98.7478285
11.991,98.7527145
11.9949,98.7590705
11.9988,98.765914
12.0026,98.77227
12.0065,98.7761745
12.0103,98.780567
12.0142,98.784472
12.0181,98.786901
12.0219,98.785898
12.0258,98.7848945
12.0296,98.7838915
12.0335,98.780936
12.0374,98.7765105
12.0412,98.772091
12.0451,98.768159
12.049,98.765735
12.0528,98.7638045
12.0567,98.762362
12.0605,98.7624
12.0644,98.7658815
12.0683,98.768875
12.0721,98.772357
12.076,98.7763105
12.0798,98.780253
12.0837,98.784201
12.0876,98.7881435
12.0914,98.788127
12.0953,98.7886045
12.0991,98.7890815
12.103,98.7890655
12.1069,98.7895425
12.1107,98.7900195
12.1146,98.7900035
12.1184,98.791473
12.1223,98.7939295
12.1262,98.795893
12.13,98.797856
12.1339,98.7993255
12.1377,98.800307
12.1416,98.8012835
12.1455,98.8017715
12.1493,98.801267
12.1532,98.801256
12.157,98.800752
12.1609,98.8012345
12.1648,98.8012345
12.1686,98.8017225
12.1725,98.802704
12.1764,98.803702
12.1802,98.8047
12.1841,98.806191
12.1879,98.8066955
12.1918,98.8071945
12.1957,98.8076935
12.1995,98.8081925
12.2034,98.8072055
12.2072,98.804738
12.2111,98.8027585
12.215,98.800779
12.2188,98.7963485
12.2227,98.792406
12.2265,98.787975
12.2304,98.784038
12.2343,98.781104
12.2381,98.777677
12.242,98.775231
12.2458,98.7737775
12.2497,98.7737995
12.2536,98.7748025
12.2574,98.775318
12.2613,98.7763155
12.2651,98.778783
12.269,98.7812505
12.2729,98.783718
12.2767,98.7861695
12.2806,98.789602
12.2844,98.7925415
12.2883,98.7949925
12.2922,98.796945
12.296,98.7993855
12.2999,98.8013375
12.3038,98.8027965
12.3076,98.803279
12.3115,98.803268
12.3153,98.8032575
12.3192,98.8027585
12.3231,98.8002965
12.3269,98.798328
12.3308,98.796359
12.3346,98.7934035
12.3385,98.7894665
12.3424,98.7855295
12.3462,98.781592
12.3501,98.7796235
12.3539,98.777167
12.3578,98.775204
12.3617,98.773729
12.3655,98.776207
12.3694,98.777704
12.3732,98.779689
12.3771,98.7826605
12.381,98.785638
12.3848,98.7891035
12.3887,98.7920805
12.3925,98.79406
12.3964,98.795047
12.4003,98.796034
12.4041,98.797021
12.408,98.79701
12.4118,98.7969885
12.4157,98.796473
12.4196,98.7964515
12.4234,98.7974115
12.4273,98.798371
12.4312,98.799331
12.435,98.800291
12.4389,98.802254
12.4427,98.803729
12.4466,98.8047105
12.4505,98.8066795
12.4543,98.8071945
12.4582,98.8077095
12.462,98.807737
12.4659,98.8077585
12.4698,98.806804
12.4736,98.805356
12.4775,98.804402
12.4813,98.8029485
12.4852,98.801484
12.4891,98.7995265
12.4929,98.7980625
12.4968,98.7965925
12.5006,98.7956055
12.5045,98.7946185
12.5084,98.7931435
12.5122,98.79265
12.5161,98.793138
12.5199,98.793138
12.5238,98.793138
12.5277,98.7946135
12.5315,98.7956005
12.5354,98.7965875
12.5392,98.7980625
12.5431,98.798068
12.547,98.798073
12.5508,98.797585
12.5547,98.7975905
12.5586,98.794158
12.5624,98.790237
12.5663,98.7858225
12.5701,98.78092
12.574,98.774548
12.5779,98.768176
12.5817,98.761316
12.5856,98.754456
12.5894,98.751034
12.5933,98.7481
12.5972,98.745166
12.601,98.7422325
12.6049,98.744678
12.6087,98.7476175
12.6126,98.7505565
12.6165,98.753984
12.6203,98.758382
12.6242,98.7622865
12.628,98.766191
12.6319,98.7710775
12.6358,98.7720425
12.6396,98.7735015
12.6435,98.7739785
12.6473,98.7754375
12.6512,98.774944
12.6551,98.7749385
12.6589,98.774445
12.6628,98.7739515
12.6666,98.7754155
12.6705,98.7773735
12.6744,98.7788375
12.6782,98.7807955
12.6821,98.7842225
12.686,98.78765
12.6898,98.7910775
12.6937,98.7949925
12.6975,98.7984255
12.7014,98.802352
12.7053,98.806278
12.7091,98.8102045
12.713,98.8136425
12.7168,98.8175745
12.7207,98.821506
12.7246,98.8254375
12.7284,98.828388
12.7323,98.8308445
12.7361,98.832813
12.74,98.835763
12.7439,98.8362565
12.7477,98.836262
12.7516,98.8362675
12.7554,98.836273
12.7593,98.833827
12.7632,98.831875
12.767,98.828941
12.7709,98.826989
12.7747,98.823068
12.7786,98.818659
12.7825,98.814738
12.7863,98.810329
12.7902,98.806403
12.794,98.8019885
12.7979,98.7980625
12.8018,98.794136
12.8056,98.791197
12.8095,98.7902205
12.8134,98.7887565
12.8172,98.787292
12.8211,98.7863215
12.8249,98.7868315
12.8288,98.787829
12.8327,98.7878455
12.8365,98.78835
12.8404,98.7883605
12.8442,98.787878
12.8481,98.787401
12.852,98.7869125
12.8558,98.7849385
12.8597,98.783453
12.8635,98.781479
12.8674,98.7794995
12.8713,98.777997
12.8751,98.776495
12.879,98.7749925
12.8828,98.7734905
12.8867,98.772487
12.8906,98.770996
12.8944,98.7699925
12.8983,98.7689895
12.9021,98.766522
12.906,98.7640595
12.9099,98.7615975
12.9137,98.7591355
12.9176,98.75618
12.9214,98.7527255
12.9253,98.7492765
12.9292,98.745334
12.933,98.743349
12.9369,98.741852
12.9408,98.74035
12.9446,98.738853
12.9485,98.738338
12.9523,98.740773
12.9562,98.742226
12.9601,98.744661
12.9639,98.747096
12.9678,98.750529
12.9716,98.7544495
12.9755,98.757877
12.9794,98.761798
12.9832,98.7647425
12.9871,98.767693
12.9909,98.771131
12.9948,98.7735875
12.9987,98.7760495
13.0025,98.7780235
13.0064,98.779504
13.0102,98.781478
13.0141,98.782476
13.018,98.782498
13.0218,98.783013
13.0257,98.783528
13.0295,98.78355
13.0334,98.782113
13.0373,98.7801875
13.0411,98.778257
13.045,98.77682
13.0488,98.772921
13.0527,98.769022
13.0566,98.7661045
13.0604,98.762205
13.0643,98.7582845
13.0682,98.754358
13.072,98.7504315
13.0759,98.747487
13.0797,98.7445315
13.0836,98.744016
13.0875,98.743013
13.0913,98.7420095
13.0952,98.741988
13.099,98.7439295
13.1029,98.7453775
13.1068,98.7473185
13.1106,98.749748
13.1145,98.7521885
13.1183,98.7546345
13.1222,98.757568
13.1261,98.760502
13.1299,98.762953
13.1338,98.7654155
13.1376,98.7683655
13.1415,98.7708275
13.1454,98.7732895
13.1492,98.776256
13.1531,98.778241
13.1569,98.780714
13.1608,98.78368
13.1647,98.785166
13.1685,98.7866575
13.1724,98.7881435
13.1762,98.790123
13.1801,98.790611
13.184,98.7906
13.1878,98.790589
13.1917,98.7910665
13.1956,98.790562
13.1994,98.790535
13.2033,98.790513
13.2071,98.790486
13.211,98.7904645
13.2149,98.791435
13.2187,98.792411
13.2226,98.792894
13.2264,98.79387
13.2303,98.7943635
13.2342,98.794868
13.238,98.7943905
13.2419,98.7944015
13.2457,98.794418
13.2496,98.792471
13.2535,98.790524
13.2573,98.788089
13.2612,98.7861425
13.265,98.7827205
13.2689,98.7792985
13.2728,98.775882
13.2766,98.77246
13.2805,98.769526
13.2843,98.767574
13.2882,98.7661095
13.2921,98.7641575
13.2959,98.762205
13.2998,98.7641685
13.3036,98.766137
13.3075,98.7685935
13.3114,98.770562
13.3152,98.773995
13.3191,98.7789025
13.323,98.7838105
13.3268,98.788225
13.3307,98.793133
13.3345,98.7955895
13.3384,98.7980405
13.3423,98.8009855
13.3461,98.80393
13.35,98.8034365
13.3538,98.8009745
13.3577,98.799494
13.3616,98.797032
13.3654,98.795058
13.3693,98.7906165
13.3731,98.7866685
13.377,98.7832085
13.3809,98.778767
13.3847,98.776782
13.3886,98.775296
13.3924,98.773805
13.3963,98.7718255
13.4002,98.770833
13.404,98.771831
13.4079,98.7728285
13.4117,98.772845
13.4156,98.773843
13.4195,98.7748515
13.4233,98.775372
13.4272,98.776381
13.431,98.7769015
13.4349,98.777905
13.4388,98.7783985
13.4426,98.7788975
13.4465,98.779391
13.4504,98.7798845
13.4542,98.780356
13.4581,98.7813105
13.4619,98.7812835
13.4658,98.7822375
13.4697,98.7822105
13.4735,98.7821835
13.4774,98.781663
13.4812,98.781142
13.4851,98.781115
13.489,98.779629
13.4928,98.7781485
13.4967,98.777156
13.5005,98.7756755
13.5044,98.774195
13.5083,98.775182
13.5121,98.7751875
13.516,98.7761745
13.5198,98.77618
13.5237,98.7791355
13.5276,98.7830725
13.5314,98.78701
13.5353,98.790947
13.5391,98.794884
13.543,98.799315
13.5469,98.802764
13.5507,98.8071945
13.5546,98.8111315
13.5584,98.8131055
13.5623,98.812623
13.5662,98.8121405
13.57,98.8116575
13.5739,98.811175
13.5778,98.807249
13.5816,98.8033225
13.5855,98.799396
13.5893,98.79547
13.5932,98.792037
13.5971,98.7895805
13.6009,98.787124
13.6048,98.784179
13.6086,98.7817225
13.6125,98.781229
13.6164,98.782205
13.6202,98.7831815
13.6241,98.783664
13.6279,98.784152
13.6318,98.786099
13.6357,98.7880455
13.6395,98.7899925
13.6434,98.792433
13.6472,98.7938915
13.6511,98.795833
13.655,98.79778
13.6588,98.7992335
13.6627,98.80118
13.6665,98.8036315
13.6704,98.806088
13.6743,98.8090325
13.6781,98.811983
13.682,98.8149275
13.6858,98.8178995
13.6897,98.820866
13.6936,98.8238375
13.6974,98.826804
13.7013,98.8287945
13.7052,98.8283225
13.709,98.827851
13.7129,98.8278725
13.7167,98.826913
13.7206,98.824467
13.7245,98.8205405
13.7283,98.8161265
13.7322,98.8122
13.736,98.8087675
13.7399,98.8038595
13.7438,98.799933
13.7476,98.7955135
13.7515,98.7910935
13.7553,98.7871675
13.7592,98.785703
13.7631,98.7832575
13.7669,98.7808115
13.7708,98.778854
13.7746,98.778371
13.7785,98.779358
13.7824,98.7793635
13.7862,98.7803505
13.7901,98.7813375
13.7939,98.783778
13.7978,98.786712
13.8017,98.78964
13.8055,98.7925685
13.8094,98.795497
13.8132,98.7979105
13.8171,98.7998355
13.821,98.8017605
13.8248,98.803192
13.8287,98.8051175
13.8326,98.803604
13.8364,98.802579
13.8403,98.801066
13.8441,98.800041
13.848,98.798051
13.8519,98.7941135
13.8557,98.7906645
13.8596,98.7872155
13.8634,98.7832785
13.8673,98.7793575
13.8712,98.775453
13.875,98.771055
13.8789,98.7671505
13.8827,98.763246
13.8866,98.759835
13.8905,98.7574055
13.8943,98.753994
13.8982,98.7515645
13.902,98.749135
13.9059,98.7486635
13.9098,98.749173
13.9136,98.749195
13.9175,98.7492115
13.9213,98.749721
13.9252,98.7521885
13.9291,98.7551495
13.9329,98.757617
13.9368,98.7600845
13.9406,98.76304
13.9445,98.7659795
13.9484,98.768924
13.9522,98.7718635
13.9561,98.7748025
13.96,98.7772485
13.9638,98.77919
13.9677,98.7801495
13.9715,98.782091
13.9754,98.7835445
13.9793,98.7854915
13.9831,98.7859685
13.987,98.7874275
13.9908,98.788886
13.9947,98.789857
13.9986,98.790833
14.0024,98.7918145
14.0063,98.792308
14.0101,98.793783
14.014,98.7947645
14.0179,98.7942765
14.0217,98.793295
14.0256,98.792319
14.0294,98.7913375
14.0333,98.790361
14.0372,98.788398
14.041,98.7859415
14.0449,98.7839785
14.0487,98.782015
14.0526,98.7790705
14.0565,98.778577
14.0603,98.778089
14.0642,98.7771075
14.068,98.7761255
14.0719,98.775144
14.0758,98.776131
14.0796,98.777606
14.0835,98.778593
14.0874,98.77958
14.0912,98.7800735
14.0951,98.781549
14.0989,98.7825305
14.1028,98.783512
14.1067,98.784987
14.1105,98.7859685
14.1144,98.7859575
14.1182,98.7869285
14.1221,98.7869175
14.126,98.7873945
14.1298,98.7878775
14.1337,98.7873675
14.1375,98.7873515
14.1414,98.7868415
14.1453,98.786825
14.1491,98.7858275
14.153,98.785334
14.1568,98.7843525
14.1607,98.7833705
14.1646,98.782877
14.1684,98.7818955
14.1723,98.7794605
14.1761,98.777514
14.18,98.775079
14.1839,98.773132
14.1877,98.770697
14.1916,98.7658055
14.1954,98.7604205
14.1993,98.756017
14.2032,98.7511255
14.207,98.7457405
14.2109,98.741825
14.2148,98.7374215
14.2186,98.7330125
14.2225,98.729097
14.2263,98.7246935
14.2302,98.726185
14.2341,98.72817
14.2379,98.729173
14.2418,98.731158
14.2456,98.732655
14.2495,98.7385605
14.2534,98.74496
14.2572,98.751359
14.2611,98.757758
14.2649,98.7641575
14.2688,98.7695535
14.2727,98.7749495
14.2765,98.7793635
14.2804,98.784266
14.2842,98.789662
14.2881,98.790627
14.292,98.7901175
14.2958,98.790589
14.2997,98.7900795
14.3035,98.790063
14.3074,98.78759
14.3113,98.7836475
14.3151,98.779705
14.319,98.7762505
14.3228,98.772308
14.3267,98.768371
14.3306,98.7639455
14.3344,98.760502
14.3383,98.7565705
14.3422,98.752145
14.346,98.7492005
14.3499,98.7467545
14.3537,98.744309
14.3576,98.7413695
14.3615,98.738924
14.3653,98.7369715
14.3692,98.7364945
14.373,98.736017
14.3769,98.73554
14.3808,98.7350625
14.3846,98.7345855
14.3885,98.736055
14.3923,98.7370365
14.3962,98.7385065
14.4001,98.7404695
14.4039,98.741451
14.4078,98.7438915
14.4116,98.745838
14.4155,98.7482785
14.4194,98.7502255
14.4232,98.752666
14.4271,98.7551115
14.4309,98.7575625
14.4348,98.760502
14.4387,98.7634415
14.4425,98.7658925
14.4464,98.7688425
14.4502,98.7713045
14.4541,98.773767
14.458,98.7762345
14.4618,98.7786965
14.4657,98.7796835
14.4696,98.777232
14.4734,98.7747755
14.4773,98.7723245
14.4811,98.7698675
14.485,98.766923
14.4889,98.7570855
14.4927,98.7477415
14.4966,98.7379095
14.5004,98.7285655
14.5043,98.719222
14.5082,98.7093845
14.512,98.699059
14.5159,98.6892215
14.5197,98.678896
14.5236,98.6685705
14.5275,98.6631635
14.5313,98.6602135
14.5352,98.6572635
14.539,98.6543135
14.5429,98.651363
14.5468,98.650875
14.5506,98.654807
14.5545,98.658744
14.5583,98.663169
14.5622,98.666613
14.5661,98.671038
14.5699,98.6759515
14.5738,98.681358
14.5776,98.685783
14.5815,98.69119
14.5854,98.6961035
14.5892,98.69856
14.5931,98.7000295
14.597,98.701499
14.6008,98.7034625
14.6047,98.704932
14.6085,98.7054145
14.6124,98.7049155
14.6163,98.7039285
14.6201,98.7029365
14.624,98.7024375
14.6278,98.701445
14.6317,98.700946
14.6356,98.700935
14.6394,98.700436
14.6433,98.7004255
14.6471,98.699433
14.651,98.700409
14.6549,98.702367
14.6587,98.703831
14.6626,98.705295
14.6664,98.706765
14.6703,98.709216
14.6742,98.712166
14.678,98.714628
14.6819,98.7175785
14.6857,98.721022
14.6896,98.723972
14.6935,98.7259515
14.6973,98.727443
14.7012,98.729916
14.705,98.731407
14.7089,98.7333865
14.7128,98.7334085
14.7166,98.731955
14.7205,98.7305015
14.7244,98.7290485
14.7282,98.727595
14.7321,98.72516
14.7359,98.721738
14.7398,98.718316
14.7437,98.714401
14.7475,98.710979
14.7514,98.7070635
14.7552,98.704124
14.7591,98.702161
14.763,98.6992165
14.7668,98.6962715
14.7707,98.6938205
14.7745,98.691852
14.7784,98.690854
14.7823,98.6908375
14.7861,98.68984
14.79,98.688842
14.7938,98.6888255
14.7977,98.6897855
14.8016,98.6912335
14.8054,98.6926815
14.8093,98.6941295
14.8131,98.695577
14.817,98.6975185
14.8209,98.6999645
14.8247,98.7028985
14.8286,98.705344
14.8324,98.7077845
14.8363,98.71023
14.8402,98.7117105
14.844,98.712703
14.8479,98.7141835
14.8518,98.715176
14.8556,98.7161685
14.8595,98.7161795
14.8633,98.714227
14.8672,98.7127685
14.8711,98.710816
14.8749,98.709357
14.8788,98.707405
14.8826,98.7025025
14.8865,98.698088
14.8904,98.6931805
14.8942,98.688278
14.8981,98.68337
14.9019,98.676987
14.9058,98.666667
14.9097,98.656347
14.9135,98.646027
14.9174,98.635707
14.9212,98.625387
14.9251,98.60915
14.929,98.5914275
14.9328,98.573217
14.9367,98.5550065
14.9405,98.536302
14.9444,98.5195615
14.9483,98.5116325
14.9521,98.5032105
14.956,98.495282
14.9598,98.486372
14.9637,98.4784435
14.9676,98.4897125
14.9714,98.515255
14.9753,98.539816
14.9792,98.5653585
14.983,98.590413
14.9869,98.614974
14.9907,98.636639
14.9946,98.658304
14.9985,98.6794755
15.0023,98.700653
15.0062,98.7218245
15.01,98.738083
15.0139,98.7464725
15.0178,98.7543685
15.0216,98.7622645
15.0255,98.770654
15.0293,98.7780615
15.0332,98.7810335
15.0371,98.782037
15.0409,98.7825465
15.0448,98.78355
15.0486,98.784553
15.0525,98.785551
15.0564,98.781625
15.0602,98.77868
15.0641,98.7757355
15.0679,98.7727905
15.0718,98.7693525
15.0757,98.7664025
15.0795,98.762953
15.0834,98.759504
15.0872,98.756055
15.0911,98.753094
15.095,98.749645
15.0988,98.7486525
15.1027,98.74913
15.1066,98.749119
15.1104,98.749108
15.1143,98.7495855
15.1181,98.7495745
15.122,98.7515375
15.1259,98.753994
15.1297,98.7554695
15.1336,98.7574325
15.1374,98.759889
15.1413,98.760876
15.1452,98.7603935
15.149,98.7594225
15.1529,98.75894
15.1567,98.7584575
15.1606,98.7574865
15.1645,98.755041
15.1683,98.7516135
15.1722,98.747698
15.176,98.744271
15.1799,98.739862
15.1838,98.7364345
15.1876,98.7335005
15.1915,98.7295855
15.1953,98.7266515
15.1992,98.7237175
15.2031,98.719802
15.2069,98.7168685
15.2108,98.7168845
15.2146,98.716901
15.2185,98.716917
15.2224,98.7169335
15.2262,98.71695
15.2301,98.717942
15.234,98.719911
15.2378,98.7218795
15.2417,98.723848
15.2455,98.7258165
15.2494,98.7282785
15.2533,98.7302365
15.2571,98.7312015
15.261,98.7326605
15.2648,98.7336255
15.2687,98.7350845
15.2726,98.736543
15.2764,98.737015
15.2803,98.7374865
15.2841,98.7379585
15.288,98.7384305
15.2919,98.738414
15.2957,98.738886
15.2996,98.739862
15.3034,98.7408435
15.3073,98.7418195
15.3112,98.742801
15.315,98.7432895
15.3189,98.7442655
15.3227,98.7442815
15.3266,98.744786
15.3305,98.7448025
15.3343,98.7453065
15.3382,98.745811
15.342,98.745334
15.3459,98.744862
15.3498,98.743897
15.3536,98.7429315
15.3575,98.741966
15.3614,98.741001
15.3652,98.74003
15.3691,98.74003
15.3729,98.7395365
15.3768,98.739043
15.3807,98.739043
15.3845,98.7385495
15.3884,98.738539
15.3922,98.7394935
15.3961,98.739466
15.4,98.739927
15.4038,98.740388
15.4077,98.7413425
15.4115,98.741798
15.4154,98.7427415
15.4193,98.743685
15.4231,98.7446285
15.427,98.745572
15.4308,98.7465155
15.4347,98.74894
15.4386,98.7528495
15.4424,98.756266
15.4463,98.7606645
15.4501,98.7645745
15.454,98.7684845
15.4579,98.7743685
15.4617,98.7817435
15.4656,98.789119
15.4694,98.7964945
15.4733,98.8038695
15.4772,98.8112395
15.481,98.818626
15.4849,98.825524
15.4888,98.8324275
15.4926,98.8393255
15.4965,98.8467175
15.5003,98.8531275
15.5042,98.858556
15.5081,98.8610395
15.5119,98.8635235
15.5158,98.866007
15.5196,98.868979
15.5235,98.8719565
15.5274,98.871978
15.5312,98.8690495
15.5351,98.866615
15.5389,98.8641745
15.5428,98.8617395
15.5467,98.858811
15.5505,98.8553835
15.5544,98.8504705
15.5582,98.845557
15.5621,98.8411375
15.566,98.836224
15.5698,98.8318045
15.5737,98.8278615
15.5775,98.825877
15.5814,98.8229105
15.5853,98.820432
15.5891,98.8179535
15.593,98.8149875
15.5968,98.8134905
15.6007,98.8134635
15.6046,98.813436
15.6084,98.813409
15.6123,98.81387
15.6162,98.813843
15.62,98.813821
15.6239,98.813317
15.6277,98.8133005
15.6316,98.8132895
15.6355,98.8132735
15.6393,98.812769
15.6432,98.812758
15.647,98.811294
15.6509,98.8098295
15.6548,98.8083655
15.6586,98.8069015
15.6625,98.8054315
15.6663,98.8039675
15.6702,98.802514
15.6741,98.801549
15.6779,98.80009
15.6818,98.7991245
15.6856,98.7976715
15.6895,98.7962125
15.6934,98.796706
15.6972,98.796218
15.7011,98.7967115
15.7049,98.7967115
15.7088,98.7967115
15.7127,98.797205
15.7165,98.7981705
15.7204,98.7991355
15.7242,98.800589
15.7281,98.8020425
15.732,98.8034955
15.7358,98.804949
15.7397,98.806896
15.7436,98.8093305
15.7474,98.8117655
15.7513,98.814694
15.7551,98.817129
15.759,98.819564
15.7629,98.822503
15.7667,98.825448
15.7706,98.828886
15.7744,98.8328125
15.7783,98.8362505
15.7822,98.8391955
15.786,98.8421455
15.7899,98.8451065
15.7937,98.847574
15.7976,98.8495535
15.8015,98.8525145
15.8053,98.854982
15.8092,98.8574495
15.813,98.8574655
15.8169,98.85797
15.8208,98.8584745
15.8246,98.857997
15.8285,98.8585015
15.8323,98.859006
15.8362,98.8575415
15.8401,98.855096
15.8439,98.853138
15.8478,98.8511805
15.8516,98.849228
15.8555,98.8472705
15.8594,98.8448195
15.8632,98.840893
15.8671,98.8369665
15.871,98.8335285
15.8748,98.830096
15.8787,98.8266575
15.8825,98.8232195
15.8864,98.819781
15.8903,98.8173245
15.8941,98.8138865
15.898,98.8114295
15.9018,98.8079915
15.9057,98.8050465
15.9096,98.80554
15.9134,98.806039
15.9173,98.807026
15.9211,98.8080185
15.925,98.8090055
15.9289,98.8095045
15.9327,98.81246
15.9366,98.816896
15.9404,98.821332
15.9443,98.8257685
15.9482,98.8306925
15.952,98.8351285
15.9559,98.8395645
15.9597,98.8435015
15.9636,98.847439
15.9675,98.851376
15.9713,98.855313
15.9752,98.859744
15.979,98.863681
15.9829,98.864657
15.9868,98.8651395
15.9906,98.8656225
15.9945,98.866593
15.9984,98.8670755
16.0022,98.867065
16.0061,98.8665605
16.0099,98.8645755
16.0138,98.862596
16.0177,98.8606115
16.0215,98.8581385
16.0254,98.8561535
16.0292,98.8536805
16.0331,98.8492445
16.037,98.8443205
16.0408,98.8398845
16.0447,98.8354535
16.0485,98.8310175
16.0524,98.8260935
16.0563,98.820676
16.0601,98.8142765
16.064,98.807883
16.0678,98.8014835
16.0717,98.7950845
16.0756,98.788685
16.0794,98.7827795
16.0833,98.779336
16.0871,98.7763805
16.091,98.772931
16.0949,98.7694875
16.0987,98.7660385
16.1026,98.762595
16.1064,98.764569
16.1103,98.768517
16.1142,98.772465
16.118,98.776413
16.1219,98.7808545
16.1258,98.7848025
16.1296,98.789244
16.1335,98.796657
16.1373,98.804065
16.1412,98.8114785
16.1451,98.8183985
16.1489,98.8263
16.1528,98.8332195
16.1566,98.8381655
16.1605,98.8421245
16.1644,98.8465715
16.1682,98.8500365
16.1721,98.8539955
16.1759,98.8579545
16.1798,98.861908
16.1837,98.862884
16.1875,98.86386
16.1914,98.864836
16.1952,98.8658125
16.1991,98.867282
16.203,98.868258
16.2068,98.869717
16.2107,98.872152
16.2145,98.8740985
16.2184,98.8765335
16.2223,98.8784805
16.2261,98.8809155
16.23,98.882862
16.2338,98.8838385
16.2377,98.8853025
16.2416,98.886772
16.2454,98.8882365
16.2493,98.8892125
16.2532,98.890677
16.257,98.8901885
16.2609,98.8867615
16.2647,98.883822
16.2686,98.8803945
16.2725,98.877461
16.2763,98.8740335
16.2802,98.870606
16.284,98.8657145
16.2879,98.8603295
16.2918,98.85495
16.2956,98.8500585
16.2995,98.8441855
16.3033,98.8388055
16.3072,98.834402
16.3111,98.8334315
16.3149,98.8324605
16.3188,98.83149
16.3226,98.8310075
16.3265,98.8300365
16.3304,98.829066
16.3342,98.8305355
16.3381,98.8359205
16.3419,98.840324
16.3458,98.845221
16.3497,98.8496245
16.3535,98.854028
16.3574,98.859413
16.3612,98.864294
16.3651,98.869657
16.369,98.8745325
16.3728,98.879896
16.3767,98.8852645
16.3806,98.89014
16.3844,98.895015
16.3883,98.8964575
16.3921,98.8983935
16.396,98.9003295
16.3999,98.901772
16.4037,98.90322
16.4076,98.9046625
16.4114,98.9051345
16.4153,98.9031655
16.4192,98.901197
16.423,98.8997165
16.4269,98.897748
16.4307,98.895286
16.4346,98.8938055
16.4385,98.8903675
16.4423,98.885953
16.4462,98.881533
16.45,98.877607
16.4539,98.8736805
16.4578,98.869261
16.4616,98.8653345
16.4655,98.859917
16.4693,98.8544995
16.4732,98.8490815
16.4771,98.843664
16.4809,98.8387345
16.4848,98.8338105
16.4886,98.8283925
16.4925,98.824434
16.4964,98.819987
16.5002,98.81554
16.5041,98.811093
16.508,98.807134
16.5118,98.802687
16.5157,98.7997155
16.5195,98.7987175
16.5234,98.798213
16.5273,98.797215
16.5311,98.7962175
16.535,98.7957075
16.5388,98.7947095
16.5427,98.7966675
16.5466,98.8005935
16.5504,98.8050135
16.5543,98.80894
16.5581,98.812866
16.562,98.817286
16.5659,98.821212
16.5697,98.8276005
16.5736,98.8349705
16.5774,98.841852
16.5813,98.849222
16.5852,98.8556105
16.589,98.8629805
16.5929,98.8698625
16.5967,98.87528
16.6006,98.879716
16.6045,98.8841575
16.6083,98.8885935
16.6122,98.893523
16.616,98.897471
16.6199,98.901907
16.6238,98.900953
16.6276,98.899505
16.6315,98.898057
16.6354,98.8961155
16.6392,98.8946675
16.6431,98.8932195
16.6469,98.891772
16.6508,98.888816
16.6547,98.8853725
16.6585,98.8824225
16.6624,98.878979
16.6662,98.875535
16.6701,98.873073
16.674,98.8701175
16.6778,98.8700795
16.6817,98.8705295
16.6855,98.870985
16.6894,98.871435
16.6933,98.8718905
16.6971,98.8723405
16.701,98.8732895
16.7048,98.8747485
16.7087,98.8767005
16.7126,98.878653
16.7164,98.8806055
16.7203,98.8825575
16.7241,98.8840165
16.728,98.8859795
16.7319,98.885524
16.7357,98.885562
16.7396,98.885112
16.7434,98.8846565
16.7473,98.8846945
16.7512,98.8847325
16.755,98.883789
16.7589,98.884326
16.7628,98.883881
16.7666,98.88393
16.7705,98.8839735
16.7743,98.883529
16.7782,98.884066
16.7821,98.8841095
16.7859,98.8860885
16.7898,98.8885615
16.7936,98.890541
16.7975,98.8925205
16.8014,98.8949935
16.8052,98.896973
16.8091,98.8989525
16.8129,98.9004165
16.8168,98.9013925
16.8207,98.902857
16.8245,98.9043265
16.8284,98.9057905
16.8322,98.906767
16.8361,98.908231
16.84,98.906257
16.8438,98.904283
16.8477,98.9028025
16.8515,98.9013165
16.8554,98.899836
16.8593,98.897862
16.8631,98.8963815
16.867,98.894413
16.8708,98.8919565
16.8747,98.889988
16.8786,98.888019
16.8824,98.8855625
16.8863,98.883594
16.8902,98.8811375
16.894,98.879657
16.8979,98.87867
16.9017,98.8771895
16.9056,98.875221
16.9095,98.874234
16.9133,98.8727535
16.9172,98.8717665
16.921,98.8697925
16.9249,98.8678185
16.9288,98.865351
16.9326,98.863377
16.9365,98.861403
16.9403,98.859429
16.9442,98.8569615
16.9481,98.854993
16.9519,98.8510665
16.9558,98.848122
16.9596,98.845177
16.9635,98.841739
16.9674,98.838794
16.9712,98.8353615
16.9751,98.832422
16.9789,98.8294935
16.9828,98.8270585
16.9867,98.823642
16.9905,98.820714
16.9944,98.8177855
16.9982,98.8153505
17.0021,98.812422
17.006,98.811446
17.0098,98.8099815
17.0137,98.809499
17.0176,98.808035
17.0214,98.8070585
17.0253,98.806088
17.0291,98.805112
17.033,98.8065705
17.0369,98.807536
17.0407,98.8089895
17.0446,98.8099545
17.0484,98.8114135
17.0523,98.8128665
17.0562,98.813832
17.06,98.816267
17.0639,98.818702
17.0677,98.8206485
17.0716,98.8230835
17.0755,98.8255185
17.0793,98.8279535
17.0832,98.8303885
17.087,98.831847
17.0909,98.832818
17.0948,98.833794
17.0986,98.835258
17.1025,98.836229
17.1063,98.837205
17.1102,98.8381755
17.1141,98.839152
17.1179,98.839141
17.1218,98.8391355
17.1256,98.8386365
17.1295,98.8391195
17.1334,98.8386205
17.1372,98.839103
17.1411,98.838604
17.145,98.8390865
17.1488,98.8395695
17.1527,98.840052
17.1565,98.8405345
17.1604,98.840529
17.1643,98.841012
17.1681,98.841001
17.172,98.8409955
17.1758,98.840502
17.1797,98.8400085
17.1836,98.839515
17.1874,98.8385335
17.1913,98.83804
17.1951,98.8375465
17.199,98.837053
17.2029,98.8350955
17.2067,98.832156
17.2106,98.8301985
17.2144,98.827747
17.2183,98.8257895
17.2222,98.823338
17.226,98.8213805
17.2299,98.8204045
17.2337,98.820903
17.2376,98.820914
17.2415,98.8209195
17.2453,98.8214185
17.2492,98.8214295
17.253,98.821435
17.2569,98.822427
17.2608,98.8268525
17.2646,98.8307895
17.2685,98.83522
17.2724,98.8391575
17.2762,98.8435825
17.2801,98.848013
17.2839,98.8519505
17.2878,98.856381
17.2917,98.85983
17.2955,98.8642605
17.2994,98.8677095
17.3032,98.8721405
17.3071,98.8755895
17.311,98.88002
17.3148,98.8824875
17.3187,98.8829865
17.3225,98.8829975
17.3264,98.88399
17.3303,98.8840005
17.3341,98.8840115
17.338,98.8845105
17.3418,98.885015
17.3457,98.883046
17.3496,98.8815655
17.3534,98.8791035
17.3573,98.8766415
17.3611,98.875161
17.365,98.872699
17.3689,98.870237
17.3727,98.868263
17.3766,98.8657845
17.3804,98.862818
17.3843,98.86034
17.3882,98.8573735
17.392,98.854895
17.3959,98.8519285
17.3997,98.8499435
17.4036,98.847476
17.4075,98.8459955
17.4113,98.844515
17.4152,98.8430345
17.4191,98.8410605
17.4229,98.83958
17.4268,98.8380995
17.4306,98.8366245
17.4345,98.838116
17.4384,98.8391195
17.4422,98.8406105
17.4461,98.842102
17.4499,98.8431055
17.4538,98.84509
17.4577,98.8460935
17.4615,98.8495535
17.4654,98.854494
17.4692,98.860416
17.4731,98.8658445
17.477,98.870785
17.4808,98.876707
17.4847,98.881647
17.4885,98.8870755
17.4924,98.89495
17.4963,98.9023305
17.5001,98.9097115
17.504,98.9175805
17.5078,98.924961
17.5117,98.9328355
17.5156,98.940216
17.5194,98.9475915
17.5233,98.9529875
17.5271,98.9588715
17.531,98.9642675
17.5349,98.9696635
17.5387,98.975059
17.5426,98.980943
17.5465,98.986339
17.5503,98.9882915
17.5542,98.988275
17.558,98.988259
17.5619,98.9882425
17.5658,98.9882265
17.5696,98.9877165
17.5735,98.9877
17.5773,98.987684
17.5812,98.983248
17.5851,98.977825
17.5889,98.972407
17.5928,98.9669895
17.5966,98.9615665
17.6005,98.956149
17.6044,98.950731
17.6082,98.9453135
17.6121,98.9399015
17.6159,98.9335075
17.6198,98.927607
17.6237,98.922195
17.6275,98.9162945
17.6314,98.9103945
17.6352,98.904494
17.6391,98.9005625
17.643,98.8995915
17.6468,98.8976395
17.6507,98.896669
17.6545,98.895698
17.6584,98.8947275
17.6623,98.8937565
17.6661,98.892298
17.67,98.8932955
17.6739,98.8952805
17.6777,98.897271
17.6816,98.8992555
17.6854,98.901734
17.6893,98.903719
17.6932,98.9061975
17.697,98.907694
17.7009,98.908193
17.7047,98.9081985
17.7086,98.9086975
17.7125,98.908703
17.7163,98.908708
17.7202,98.9087135
17.724,98.908719
17.7279,98.9087245
17.7318,98.905758
17.7356,98.9023035
17.7395,98.8988435
17.7433,98.895389
17.7472,98.891929
17.7511,98.8884745
17.7549,98.8855085
17.7588,98.8815605
17.7626,98.8781005
17.7665,98.874147
17.7704,98.870687
17.7742,98.8667335
17.7781,98.86278
17.7819,98.85932
17.7858,98.8548785
17.7897,98.8519125
17.7935,98.8519125
17.7974,98.851419
17.8013,98.851419
17.8051,98.8509255
17.809,98.8509255
17.8128,98.850432
17.8167,98.850432
17.8206,98.851419
17.8244,98.856359
17.8283,98.860806
17.8321,98.865253
17.836,98.8697
17.8399,98.874635
17.8437,98.8795755
17.8476,98.8840225
17.8514,98.888963
17.8553,98.894402
17.8592,98.8998415
17.863,98.9057745
17.8669,98.9112135
17.8707,98.916653
17.8746,98.9225805
17.8785,98.92802
17.8823,98.931984
17.8862,98.93398
17.89,98.934994
17.8939,98.93699
17.8978,98.9389855
17.9016,98.9399995
17.9055,98.9419955
17.9093,98.9434975
17.9132,98.9435245
17.9171,98.940591
17.9209,98.937657
17.9248,98.9352165
17.9287,98.932283
17.9325,98.929349
17.9364,98.926415
17.9402,98.923975
17.9441,98.9205365
17.948,98.915607
17.9518,98.911171
17.9557,98.9062415
17.9595,98.901312
17.9634,98.8968755
17.9673,98.891946
17.9711,98.8870165
17.975,98.882575
17.9788,98.8781175
17.9827,98.8736595
17.9866,98.869695
17.9904,98.8652375
17.9943,98.861273
17.9981,98.8568155
18.002,98.8523575
18.0059,98.848887
18.0097,98.845915
18.0136,98.8434365
18.0174,98.840958
18.0213,98.8379865
18.0252,98.835508
18.029,98.8330295
18.0329,98.830551
18.0367,98.828073
18.0406,98.829049
18.0445,98.830025
18.0483,98.8310015
18.0522,98.8319775
18.0561,98.8329535
18.0599,98.8339295
18.0638,98.8344125
18.0676,98.8353885
18.0715,98.8402855
18.0754,98.8451825
18.0792,98.8500795
18.0831,98.8549765
18.0869,98.8598735
18.0908,98.8652585
18.0947,98.8701555
18.0985,98.8750525
18.1024,98.8794505
18.1062,98.88483
18.1101,98.889228
18.114,98.8941145
18.1178,98.8990005
18.1217,98.9033985
18.1255,98.9082845
18.1294,98.912683
18.1333,98.914635
18.1371,98.914635
18.141,98.914635
18.1448,98.915123
18.1487,98.915123
18.1526,98.9146295
18.1564,98.9146295
18.1603,98.9146295
18.1641,98.9131655
18.168,98.9097545
18.1719,98.9063435
18.1757,98.902932
18.1796,98.899521
18.1835,98.89611
18.1873,98.892699
18.1912,98.889288
18.195,98.886365
18.1989,98.8839355
18.2028,98.881994
18.2066,98.880058
18.2105,98.8781165
18.2143,98.8761805
18.2182,98.8742395
18.2221,98.8727915
18.2259,98.870362
18.2298,98.8713595
18.2336,98.8728455
18.2375,98.8738435
18.2414,98.8753295
18.2452,98.8768155
18.2491,98.8783065
18.2529,98.8797925
18.2568,98.8812785
18.2607,98.8822655
18.2645,98.8832525
18.2684,98.884234
18.2722,98.8852155
18.2761,98.8862025
18.28,98.8871845
18.2838,98.888166
18.2877,98.8891475
18.2915,98.8891475
18.2954,98.885693
18.2993,98.8827265
18.3031,98.879272
18.307,98.8758175
18.3109,98.8718695
18.3147,98.868903
18.3186,98.8654485
18.3224,98.861994
18.3263,98.857059
18.3302,98.8516305
18.334,98.8462075
18.3379,98.840779
18.3417,98.8348625
18.3456,98.8299275
18.3495,98.824011
18.3533,98.819076
18.3572,98.8146345
18.361,98.811679
18.3649,98.809705
18.3688,98.8072375
18.3726,98.8042815
18.3765,98.801814
18.3803,98.7993465
18.3842,98.7968845
18.3881,98.794417
18.3919,98.795903
18.3958,98.797877
18.3996,98.799363
18.4035,98.801337
18.4074,98.8033165
18.4112,98.8048025
18.4151,98.8067765
18.4189,98.8082625
18.4228,98.811722
18.4267,98.815681
18.4305,98.8206215
18.4344,98.825074
18.4383,98.829526
18.4421,98.8339785
18.446,98.838919
18.4498,98.8433715
18.4537,98.84733
18.4576,98.850302
18.4614,98.853274
18.4653,98.856734
18.4691,98.859706
18.473,98.8626775
18.4769,98.8656495
18.4807,98.8686215
18.4846,98.8720865
18.4884,98.8725855
18.4923,98.871105
18.4962,98.86963
18.5,98.8681495
18.5039,98.866669
18.5077,98.865194
18.5116,98.8637135
18.5155,98.861745
18.5193,98.860758
18.5232,98.85681
18.527,98.852862
18.5309,98.848914
18.5348,98.844966
18.5386,98.841018
18.5425,98.83707
18.5463,98.833122
18.5502,98.829174
18.5541,98.8257195
18.5579,98.8222705
18.5618,98.8188215
18.5657,98.814884
18.5695,98.811435
18.5734,98.8084795
18.5772,98.8050305
18.5811,98.8015815
18.585,98.797644
18.5888,98.795182
18.5927,98.792731
18.5965,98.7902745
18.6004,98.7878175
18.6043,98.7858545
18.6081,98.783398
18.612,98.780941
18.6158,98.7784845
18.6197,98.7765215
18.6236,98.776039
18.6274,98.776044
18.6313,98.7755615
18.6351,98.775079
18.639,98.7750845
18.6429,98.774602
18.6467,98.774607
18.6506,98.7741245
18.6544,98.7746235
18.6583,98.776104
18.6622,98.7775845
18.666,98.7800465
18.6699,98.781527
18.6737,98.7830075
18.6776,98.784488
18.6815,98.7859685
18.6853,98.787449
18.6892,98.7899055
18.6931,98.7928505
18.6969,98.795795
18.7008,98.79874
18.7046,98.8016845
18.7085,98.804629
18.7124,98.807574
18.7162,98.8105185
18.7201,98.8134635
18.7239,98.8173895
18.7278,98.8213105
18.7317,98.825725
18.7355,98.829651
18.7394,98.8340655
18.7432,98.83848
18.7471,98.842406
18.751,98.8468205
18.7548,98.850253
18.7587,98.853198
18.7625,98.855161
18.7664,98.8576175
18.7703,98.8605625
18.7741,98.8625255
18.778,98.8654705
18.7818,98.8674335
18.7857,98.870378
18.7896,98.8708715
18.7934,98.8684205
18.7973,98.8664625
18.8011,98.8640115
18.805,98.862054
18.8089,98.8596025
18.8127,98.8571515
18.8166,98.8551935
18.8205,98.8527425
18.8243,98.848328
18.8282,98.842444
18.832,98.8365545
18.8359,98.8306705
18.8398,98.825275
18.8436,98.8188975
18.8475,98.8135015
18.8513,98.807124
18.8552,98.801728
18.8591,98.795334
18.8629,98.789423
18.8668,98.783024
18.8706,98.7771125
18.8745,98.7707135
18.8784,98.7648025
18.8822,98.758403
18.8861,98.752004
18.8899,98.746093
18.8938,98.744585
18.8977,98.744547
18.9015,98.744509
18.9054,98.744471
18.9092,98.744433
18.9131,98.743907
18.917,98.743869
18.9208,98.743831
18.9247,98.743793
18.9285,98.7516295
18.9324,98.7609405
18.9363,98.770252
18.9401,98.7800515
18.944,98.7893625
18.9479,98.7981805
18.9517,98.807492
18.9556,98.816803
18.9594,98.8261145
18.9633,98.8364345
18.9672,98.8467545
18.971,98.8570745
18.9749,98.8674
18.9787,98.8777205
18.9826,98.8880405
18.9865,98.8983605
18.9903,98.909174
18.9942,98.919494
18.998,98.922455
19.0019,98.925904
19.0058,98.9293585
19.0096,98.9323195
19.0135,98.9352805
19.0173,98.9382415
19.0212,98.9412025
19.0251,98.9446515
19.0289,98.9476125
19.0328,98.947629
19.0366,98.9471515
19.0405,98.946181
19.0444,98.945704
19.0482,98.9452265
19.0521,98.9447495
19.0559,98.944272
19.0598,98.943795
19.0637,98.943318
19.0675,98.943822
19.0714,98.94482
19.0753,98.9458125
19.0791,98.9468105
19.083,98.9478025
19.0868,98.9488005
19.0907,98.949305
19.0946,98.950791
19.0984,98.951295
19.1023,98.9527755
19.1061,98.9547445
19.11,98.9562195
19.1139,98.9572065
19.1177,98.959175
19.1216,98.960162
19.1254,98.961637
19.1293,98.9636055
19.1332,98.9645925
19.137,98.964587
19.1409,98.9635895
19.1447,98.9621035
19.1486,98.9606175
19.1525,98.9596195
19.1563,98.9581335
19.1602,98.9566475
19.164,98.95565
19.1679,98.954164
19.1718,98.951691
19.1756,98.946756
19.1795,98.942309
19.1833,98.937374
19.1872,98.932927
19.1911,98.927992
19.1949,98.923545
19.1988,98.91861
19.2027,98.9141635
19.2065,98.9092285
19.2104,98.9042985
19.2142,98.899369
19.2181,98.894434
19.222,98.8895045
19.2258,98.884575
19.2297,98.87964
19.2335,98.8747105
19.2374,98.869781
19.2413,98.8653395
19.2451,98.8628825
19.249,98.860914
19.2528,98.8584575
19.2567,98.856489
19.2606,98.8545205
19.2644,98.8520635
19.2683,98.850095
19.2721,98.8481265
19.276,98.84567
19.2799,98.8466625
19.2837,98.8491355
19.2876,98.8511145
19.2914,98.853582
19.2953,98.8555615
19.2992,98.857541
19.303,98.8595205
19.3069,98.8615
19.3107,98.8634795
19.3146,98.867921
19.3185,98.873843
19.3223,98.880253
19.3262,98.886663
19.3301,98.892585
19.3339,98.898995
19.3378,98.904917
19.3416,98.911327
19.3455,98.917737
19.3494,98.923659
19.3532,98.9290875
19.3571,98.934516
19.3609,98.9399445
19.3648,98.9448795
19.3687,98.950308
19.3725,98.9557365
19.3764,98.961165
19.3802,98.965612
19.3841,98.9710405
19.388,98.9720385
19.3918,98.9715665
19.3957,98.9710895
19.3995,98.9706175
19.4034,98.9701405
19.4073,98.969175
19.4111,98.9691915
19.415,98.9682265
19.4188,98.967749
19.4227,98.965802
19.4266,98.961404
19.4304,98.957494
19.4343,98.9526025
19.4381,98.9486925
19.442,98.943801
19.4459,98.939891
19.4497,98.935493
19.4536,98.9310895
19.4575,98.9266915
19.4613,98.9218105
19.4652,98.91693
19.469,98.9120495
19.4729,98.9071685
19.4768,98.902288
19.4806,98.897407
19.4845,98.89302
19.4883,98.8876515
19.4922,98.8827705
19.4961,98.8783725
19.4999,98.873481
19.5038,98.8690775
19.5076,98.8646795
19.5115,98.860276
19.5154,98.8558725
19.5192,98.850981
19.5231,98.8465775
19.5269,98.8426675
19.5308,98.837776
19.5347,98.8348095
19.5385,98.831843
19.5424,98.8288765
19.5462,98.8259155
19.5501,98.822949
19.554,98.8199825
19.5578,98.817016
19.5617,98.81405
19.5655,98.811577
19.5694,98.8095865
19.5733,98.8095485
19.5771,98.8095105
19.581,98.8094725
19.5849,98.8094345
19.5887,98.8093965
19.5926,98.8093585
19.5964,98.8093205
19.6003,98.8092825
19.6042,98.8092445
19.608,98.8111805
19.6119,98.814098
19.6157,98.816034
19.6196,98.8184635
19.6235,98.821381
19.6273,98.823317
19.6312,98.8262345
19.635,98.828664
19.6389,98.8306
19.6428,98.8335175
19.6466,98.836446
19.6505,98.839369
19.6543,98.841804
19.6582,98.844727
19.6621,98.8476555
19.6659,98.8505785
19.6698,98.8530135
19.6736,98.8559365
19.6775,98.8588645
19.6814,98.860806
19.6852,98.8627475
19.6891,98.864201
19.6929,98.865649
19.6968,98.867102
19.7007,98.8690435
19.7045,98.870497
19.7084,98.8724385
19.7123,98.873398
19.7161,98.8753395
19.72,98.8753395
19.7238,98.874846
19.7277,98.874358
19.7316,98.874358
19.7354,98.8738645
19.7393,98.8738645
19.7431,98.8733765
19.747,98.872883
19.7509,98.872883
19.7547,98.872395
19.7586,98.870459
19.7624,98.868523
19.7663,98.866587
19.7702,98.8656325
19.774,98.8636965
19.7779,98.8617605
19.7817,98.8598245
19.7856,98.8583765
19.7895,98.8564405
19.7933,98.854993
19.7972,98.853545
19.801,98.852097
19.8049,98.851137
19.8088,98.849689
19.8126,98.848241
19.8165,98.8472815
19.8203,98.8458335
19.8242,98.8443855
19.8281,98.8434255
19.8319,98.842455
19.8358,98.8424495
19.8397,98.841956
19.8435,98.841956
19.8474,98.8414625
19.8512,98.840969
19.8551,98.8409635
19.859,98.8409635
19.8628,98.84047
19.8667,98.8399765
19.8705,98.838979
19.8744,98.837981
19.8783,98.8360015
19.8821,98.83451
19.886,98.8330185
19.8898,98.8315275
19.8937,98.830036
19.8976,98.8285445
19.9014,98.827547
19.9053,98.8255675
19.9091,98.822113
19.913,98.817677
19.9169,98.8132405
19.9207,98.809298
19.9246,98.804862
19.9284,98.800426
19.9323,98.7964835
19.9362,98.7920475
19.94,98.7876115
19.9439,98.7836685
19.9477,98.7787285
19.9516,98.7737825
19.9555,98.768842
19.9593,98.763408
19.9632,98.7584675
19.9671,98.753522
19.9709,98.7485815
19.9748,98.743641
19.9786,98.738207
19.9825,98.7337545
19.9864,98.7312545
19.9902,98.7292425
19.9941,98.7272305
19.9979,98.7247305
20.0018,98.723212
20.0057,98.7212
20.0095,98.7187
20.0134,98.716688
20.0172,98.714676
